[Subject]	
[Date]	05/30/2016
[Time]	17:35:24
[Channels]	27
[Rate]	1000.000000
[Type]	Average
[Points]	1351
[Xmin]	-100.00000
[Sweeps]	5047
[Accepted]	189
[Rejected]	4858
[Domain]	Time
[Rows]	Points																									
[Electrode Labels]																											
[FP2]	        [AF4]	        [F2]	        [F4]	        [F6]	        [F8]	        [FC2]	        [FC4]	        [FC6]	        [FT8]	        [C2]	        [C4]	        [C6]	        [T8]	        [CP2]	        [CP4]	        [CP6]	        [TP8]	        [P2]	        [P4]	        [P6]	        [P8]	        [PO4]	        [PO6]	        [PO8]	        [O2]	        [CB2]	
[Electrode XUnits]																											
[Default]	[Default]	[Default]	[Default]	[Default]	[Default]	[Default]	[Default]	[Default]	[Default]	[Default]	[Default]	[Default]	[Default]	[Default]	[Default]	[Default]	[Default]	[Default]	[Default]	[Default]	[Default]	[Default]	[Default]	[Default]	[Default]	[Default]	
[Electrode YUnits]																											
[Default]	[Default]	[Default]	[Default]	[Default]	[Default]	[Default]	[Default]	[Default]	[Default]	[Default]	[Default]	[Default]	[Default]	[Default]	[Default]	[Default]	[Default]	[Default]	[Default]	[Default]	[Default]	[Default]	[Default]	[Default]	[Default]	[Default]	
[Average Data]
0.59490 	0.78775 	0.75805 	0.60165 	0.54330 	0.30840 	0.54205 	0.51915 	0.36260 	0.27350 	0.21985 	0.37430 	0.23820 	-0.15225 	0.11095 	0.28750 	0.12855 	-0.13210 	-0.06640 	-0.15340 	-0.01390 	-0.14500 	0.06935 	0.04300 	0.00590 	0.18080 	0.24270 
0.60045 	0.81155 	0.77930 	0.62700 	0.56340 	0.32615 	0.57135 	0.55365 	0.39585 	0.28640 	0.26025 	0.41315 	0.27600 	-0.11125 	0.16020 	0.33510 	0.18655 	-0.10480 	-0.01760 	-0.11565 	0.02900 	-0.10665 	0.10110 	0.07905 	0.05435 	0.20760 	0.27840 
0.60405 	0.82500 	0.79745 	0.64905 	0.57905 	0.34365 	0.59970 	0.58760 	0.42680 	0.29815 	0.30210 	0.45390 	0.31385 	-0.06510 	0.21085 	0.38300 	0.24460 	-0.07065 	0.03230 	-0.07670 	0.07255 	-0.06540 	0.13380 	0.11405 	0.10295 	0.23425 	0.31185 
0.60495 	0.82670 	0.81105 	0.66595 	0.58910 	0.36035 	0.62515 	0.61870 	0.45340 	0.30925 	0.34335 	0.49410 	0.35020 	-0.01615 	0.26070 	0.42920 	0.30050 	-0.03130 	0.08165 	-0.03835 	0.11520 	-0.02270 	0.16630 	0.14675 	0.15045 	0.25955 	0.34180 
0.60230 	0.81620 	0.81890 	0.67610 	0.59280 	0.37535 	0.64580 	0.64440 	0.47355 	0.31965 	0.38180 	0.53110 	0.38340 	0.03310 	0.30745 	0.47155 	0.35185 	0.01090 	0.12835 	-0.00220 	0.15525 	0.01970 	0.19720 	0.17585 	0.19530 	0.28220 	0.36690 
0.59525 	0.79365 	0.81975 	0.67815 	0.58980 	0.38755 	0.65995 	0.66275 	0.48565 	0.32910 	0.41505 	0.56215 	0.41155 	0.07950 	0.34895 	0.50775 	0.39625 	0.05320 	0.17060 	0.02990 	0.19085 	0.05960 	0.22485 	0.20015 	0.23615 	0.30065 	0.38580 
0.58325 	0.76020 	0.81275 	0.67130 	0.58010 	0.39575 	0.66605 	0.67175 	0.48870 	0.33635 	0.44120 	0.58500 	0.43240 	0.12030 	0.38300 	0.53590 	0.43155 	0.09275 	0.20660 	0.05640 	0.22040 	0.09500 	0.24780 	0.21850 	0.27130 	0.31350 	0.39735 
0.56580 	0.71780 	0.79760 	0.65530 	0.56405 	0.39875 	0.66325 	0.67040 	0.48235 	0.34050 	0.45850 	0.59785 	0.44430 	0.15305 	0.40820 	0.55455 	0.45585 	0.12715 	0.23510 	0.07615 	0.24255 	0.12400 	0.26475 	0.23015 	0.29955 	0.31945 	0.40035 
0.54310 	0.66895 	0.77440 	0.63055 	0.54225 	0.39565 	0.65130 	0.65840 	0.46725 	0.34040 	0.46610 	0.59980 	0.44595 	0.17635 	0.42365 	0.56290 	0.46815 	0.15480 	0.25535 	0.08855 	0.25675 	0.14560 	0.27485 	0.23455 	0.31990 	0.31755 	0.39400 
0.51550 	0.61675 	0.74390 	0.59795 	0.51535 	0.38585 	0.63050 	0.63625 	0.44455 	0.33545 	0.46395 	0.59110 	0.43705 	0.18970 	0.42940 	0.56090 	0.46825 	0.17495 	0.26735 	0.09380 	0.26295 	0.15935 	0.27760 	0.23175 	0.33190 	0.30745 	0.37795 
0.48385 	0.56410 	0.70725 	0.55880 	0.48430 	0.36910 	0.60200 	0.60505 	0.41595 	0.32530 	0.45255 	0.57280 	0.41830 	0.19385 	0.42615 	0.54945 	0.45660 	0.18785 	0.27165 	0.09265 	0.26185 	0.16570 	0.27335 	0.22260 	0.33565 	0.28935 	0.35230 
0.44910 	0.51390 	0.66585 	0.51455 	0.44980 	0.34560 	0.56715 	0.56655 	0.38335 	0.30995 	0.43325 	0.54675 	0.39115 	0.18995 	0.41525 	0.52995 	0.43480 	0.19420 	0.26940 	0.08630 	0.25455 	0.16565 	0.26275 	0.20800 	0.33210 	0.26400 	0.31800 
0.41245 	0.46855 	0.62130 	0.46700 	0.41280 	0.31590 	0.52780 	0.52275 	0.34860 	0.28945 	0.40765 	0.51525 	0.35755 	0.17980 	0.39855 	0.50430 	0.40475 	0.19515 	0.26215 	0.07640 	0.24260 	0.16080 	0.24690 	0.18960 	0.32250 	0.23295 	0.27640 
0.37510 	0.42965 	0.57520 	0.41780 	0.37400 	0.28085 	0.48585 	0.47585 	0.31330 	0.26395 	0.37775 	0.48085 	0.31995 	0.16530 	0.37815 	0.47470 	0.36895 	0.19220 	0.25155 	0.06475 	0.22775 	0.15295 	0.22735 	0.16920 	0.30850 	0.19800 	0.22960 
0.33820 	0.39810 	0.52900 	0.36895 	0.33460 	0.24185 	0.44315 	0.42815 	0.27890 	0.23345 	0.34545 	0.44625 	0.28090 	0.14890 	0.35605 	0.44345 	0.33005 	0.18690 	0.23955 	0.05325 	0.21190 	0.14405 	0.20575 	0.14860 	0.29215 	0.16125 	0.18005 
0.30285 	0.37385 	0.48405 	0.32220 	0.29555 	0.20055 	0.40145 	0.38185 	0.24670 	0.19840 	0.31265 	0.41355 	0.24295 	0.13330 	0.33420 	0.41255 	0.29070 	0.18085 	0.22770 	0.04365 	0.19675 	0.13615 	0.18380 	0.12965 	0.27575 	0.12475 	0.13025 
0.26990 	0.35610 	0.44140 	0.27910 	0.25785 	0.15865 	0.36210 	0.33895 	0.21780 	0.15940 	0.28105 	0.38460 	0.20825 	0.12160 	0.31415 	0.38390 	0.25335 	0.17555 	0.21750 	0.03740 	0.18410 	0.13120 	0.16330 	0.11410 	0.26140 	0.09070 	0.08255 
0.23990 	0.34340 	0.40155 	0.24090 	0.22230 	0.11810 	0.32605 	0.30075 	0.19290 	0.11795 	0.25180 	0.36065 	0.17820 	0.11695 	0.29715 	0.35885 	0.21990 	0.17230 	0.21010 	0.03560 	0.17535 	0.13060 	0.14575 	0.10315 	0.25090 	0.06060 	0.03930 
0.21340 	0.33380 	0.36490 	0.20830 	0.18955 	0.08055 	0.29410 	0.26820 	0.17230 	0.07610 	0.22600 	0.34225 	0.15370 	0.12245 	0.28410 	0.33850 	0.19210 	0.17185 	0.20635 	0.03920 	0.17160 	0.13565 	0.13235 	0.09780 	0.24565 	0.03605 	0.00210 
0.19050 	0.32505 	0.33160 	0.18150 	0.16005 	0.04725 	0.26640 	0.24150 	0.15580 	0.03615 	0.20415 	0.32925 	0.13460 	0.14020 	0.27550 	0.32325 	0.17100 	0.17475 	0.20680 	0.04855 	0.17365 	0.14685 	0.12410 	0.09860 	0.24655 	0.01770 	-0.02800 
0.17110 	0.31515 	0.30140 	0.16015 	0.13400 	0.01910 	0.24295 	0.22045 	0.14300 	0.00075 	0.18660 	0.32120 	0.12025 	0.17105 	0.27155 	0.31335 	0.15745 	0.18110 	0.21165 	0.06370 	0.18185 	0.16445 	0.12160 	0.10565 	0.25365 	0.00600 	-0.05040 
0.15485 	0.30200 	0.27400 	0.14375 	0.11145 	-0.00365 	0.22350 	0.20425 	0.13320 	-0.02790 	0.17340 	0.31720 	0.10970 	0.21425 	0.27205 	0.30875 	0.15170 	0.19075 	0.22095 	0.08465 	0.19615 	0.18810 	0.12520 	0.11865 	0.26670 	0.00075 	-0.06525 
0.14130 	0.28420 	0.24890 	0.13125 	0.09220 	-0.02120 	0.20750 	0.19195 	0.12575 	-0.04805 	0.16435 	0.31625 	0.10175 	0.26745 	0.27680 	0.30910 	0.15365 	0.20315 	0.23440 	0.11090 	0.21615 	0.21715 	0.13455 	0.13715 	0.28490 	0.00150 	-0.07295 
0.12980 	0.26075 	0.22575 	0.12160 	0.07605 	-0.03400 	0.19435 	0.18220 	0.11985 	-0.05880 	0.15895 	0.31740 	0.09555 	0.32680 	0.28515 	0.31375 	0.16250 	0.21745 	0.25150 	0.14175 	0.24100 	0.25030 	0.14935 	0.16015 	0.30705 	0.00735 	-0.07440 
0.11945 	0.23160 	0.20395 	0.11360 	0.06225 	-0.04290 	0.18325 	0.17395 	0.11490 	-0.06025 	0.15670 	0.31970 	0.09060 	0.38715 	0.29620 	0.32185 	0.17695 	0.23230 	0.27150 	0.17615 	0.26925 	0.28615 	0.16875 	0.18665 	0.33180 	0.01735 	-0.07070 
0.10975 	0.19705 	0.18305 	0.10620 	0.05025 	-0.04895 	0.17335 	0.16590 	0.11010 	-0.05330 	0.15675 	0.32240 	0.08680 	0.44320 	0.30895 	0.33235 	0.19540 	0.24575 	0.29330 	0.21300 	0.29920 	0.32275 	0.19150 	0.21515 	0.35765 	0.03020 	-0.06315 
0.09985 	0.15830 	0.16260 	0.09845 	0.03920 	-0.05310 	0.16385 	0.15735 	0.10500 	-0.03990 	0.15825 	0.32485 	0.08425 	0.48975 	0.32220 	0.34400 	0.21585 	0.25545 	0.31575 	0.25075 	0.32905 	0.35805 	0.21615 	0.24415 	0.38290 	0.04460 	-0.05310 
0.08930 	0.11700 	0.14215 	0.08960 	0.02855 	-0.05655 	0.15395 	0.14760 	0.09930 	-0.02245 	0.16030 	0.32660 	0.08365 	0.52285 	0.33475 	0.35575 	0.23650 	0.25910 	0.33770 	0.28795 	0.35695 	0.39025 	0.24120 	0.27215 	0.40585 	0.05935 	-0.04190 
0.07780 	0.07530 	0.12155 	0.07925 	0.01805 	-0.06035 	0.14320 	0.13660 	0.09340 	-0.00340 	0.16240 	0.32735 	0.08575 	0.54010 	0.34560 	0.36645 	0.25595 	0.25515 	0.35820 	0.32370 	0.38140 	0.41800 	0.26550 	0.29795 	0.42515 	0.07360 	-0.03060 
0.06525 	0.03545 	0.10085 	0.06740 	0.00765 	-0.06520 	0.13145 	0.12460 	0.08775 	0.01520 	0.16400 	0.32685 	0.09125 	0.54085 	0.35410 	0.37540 	0.27330 	0.24310 	0.37655 	0.35705 	0.40175 	0.44065 	0.28800 	0.32080 	0.43990 	0.08675 	-0.01990 
0.05185 	-0.00010 	0.08025 	0.05430 	-0.00250 	-0.07125 	0.11870 	0.11205 	0.08300 	0.03190 	0.16505 	0.32500 	0.10035 	0.52650 	0.35985 	0.38200 	0.28820 	0.22405 	0.39245 	0.38780 	0.41785 	0.45845 	0.30825 	0.34075 	0.44985 	0.09895 	-0.00965 
0.03820 	-0.02930 	0.06010 	0.04035 	-0.01235 	-0.07855 	0.10520 	0.09945 	0.07940 	0.04575 	0.16545 	0.32150 	0.11250 	0.49965 	0.36285 	0.38615 	0.30065 	0.20055 	0.40585 	0.41600 	0.43010 	0.47190 	0.32630 	0.35785 	0.45540 	0.11055 	0.00040 
0.02445 	-0.05085 	0.04060 	0.02580 	-0.02180 	-0.08665 	0.09110 	0.08705 	0.07670 	0.05645 	0.16525 	0.31605 	0.12630 	0.46360 	0.36315 	0.38750 	0.31075 	0.17590 	0.41680 	0.44180 	0.43885 	0.48210 	0.34195 	0.37265 	0.45700 	0.12210 	0.01085 
0.01105 	-0.06425 	0.02185 	0.01085 	-0.03095 	-0.09515 	0.07645 	0.07475 	0.07460 	0.06410 	0.16410 	0.30795 	0.13935 	0.42165 	0.36055 	0.38565 	0.31840 	0.15375 	0.42510 	0.46515 	0.44450 	0.48975 	0.35535 	0.38535 	0.45520 	0.13375 	0.02190 
-0.00215 	-0.07005 	0.00335 	-0.00465 	-0.03980 	-0.10385 	0.06110 	0.06210 	0.07210 	0.06875 	0.16155 	0.29645 	0.14890 	0.37650 	0.35495 	0.38000 	0.32320 	0.13695 	0.43030 	0.48560 	0.44700 	0.49520 	0.36585 	0.39580 	0.45030 	0.14520 	0.03330 
-0.01530 	-0.06975 	-0.01510 	-0.02085 	-0.04840 	-0.11260 	0.04470 	0.04855 	0.06850 	0.07080 	0.15690 	0.28100 	0.15275 	0.32970 	0.34600 	0.36980 	0.32455 	0.12755 	0.43185 	0.50260 	0.44595 	0.49845 	0.37315 	0.40345 	0.44230 	0.15580 	0.04465 
-0.02880 	-0.06555 	-0.03425 	-0.03810 	-0.05680 	-0.12140 	0.02685 	0.03340 	0.06315 	0.07050 	0.14960 	0.26090 	0.14920 	0.28190 	0.33335 	0.35445 	0.32195 	0.12595 	0.42915 	0.51535 	0.44085 	0.49910 	0.37645 	0.40760 	0.43090 	0.16465 	0.05500 
-0.04320 	-0.06010 	-0.05455 	-0.05680 	-0.06510 	-0.13025 	0.00735 	0.01605 	0.05570 	0.06800 	0.13890 	0.23615 	0.13790 	0.23280 	0.31675 	0.33345 	0.31495 	0.13170 	0.42165 	0.52315 	0.43135 	0.49660 	0.37525 	0.40740 	0.41605 	0.17100 	0.06355 
-0.05870 	-0.05600 	-0.07640 	-0.07720 	-0.07385 	-0.13900 	-0.01415 	-0.00400 	0.04555 	0.06335 	0.12455 	0.20650 	0.11960 	0.18165 	0.29595 	0.30650 	0.30330 	0.14300 	0.40890 	0.52535 	0.41720 	0.49035 	0.36900 	0.40235 	0.39740 	0.17395 	0.06970 
-0.07575 	-0.05590 	-0.10015 	-0.09960 	-0.08365 	-0.14760 	-0.03770 	-0.02720 	0.03240 	0.05660 	0.10605 	0.17200 	0.09550 	0.12715 	0.27095 	0.27370 	0.28700 	0.15765 	0.39070 	0.52145 	0.39825 	0.47980 	0.35755 	0.39175 	0.37465 	0.17300 	0.07280 
-0.09440 	-0.06205 	-0.12590 	-0.12440 	-0.09550 	-0.15590 	-0.06345 	-0.05415 	0.01585 	0.04785 	0.08335 	0.13240 	0.06705 	0.06860 	0.24160 	0.23485 	0.26560 	0.17300 	0.36700 	0.51105 	0.37430 	0.46450 	0.34070 	0.37525 	0.34755 	0.16765 	0.07235 
-0.11485 	-0.07605 	-0.15360 	-0.15170 	-0.11020 	-0.16365 	-0.09130 	-0.08520 	-0.00425 	0.03695 	0.05630 	0.08770 	0.03570 	0.00560 	0.20775 	0.19005 	0.23895 	0.18650 	0.33775 	0.49375 	0.34525 	0.44415 	0.31835 	0.35255 	0.31580 	0.15730 	0.06780 
-0.13680 	-0.09860 	-0.18300 	-0.18115 	-0.12830 	-0.17075 	-0.12100 	-0.12030 	-0.02775 	0.02390 	0.02510 	0.03785 	0.00265 	-0.06130 	0.16955 	0.13955 	0.20695 	0.19600 	0.30315 	0.46960 	0.31110 	0.41875 	0.29065 	0.32345 	0.27925 	0.14195 	0.05880 
-0.15975 	-0.12940 	-0.21310 	-0.21200 	-0.14960 	-0.17690 	-0.15190 	-0.15885 	-0.05410 	0.00900 	-0.00950 	-0.01660 	-0.03060 	-0.13070 	0.12740 	0.08375 	0.17020 	0.20025 	0.26360 	0.43875 	0.27215 	0.38860 	0.25810 	0.28840 	0.23820 	0.12160 	0.04540 
-0.18280 	-0.16690 	-0.24280 	-0.24290 	-0.17330 	-0.18175 	-0.18270 	-0.19955 	-0.08205 	-0.00730 	-0.04650 	-0.07435 	-0.06255 	-0.20015 	0.08220 	0.02380 	0.12980 	0.19870 	0.22020 	0.40215 	0.22905 	0.35450 	0.22150 	0.24810 	0.19320 	0.09720 	0.02815 
-0.20460 	-0.20850 	-0.27030 	-0.27215 	-0.19815 	-0.18455 	-0.21185 	-0.24015 	-0.11025 	-0.02415 	-0.08410 	-0.13335 	-0.09160 	-0.26700 	0.03525 	-0.03870 	0.08755 	0.19160 	0.17420 	0.36115 	0.18300 	0.31760 	0.18225 	0.20395 	0.14545 	0.06980 	0.00810 
-0.22355 	-0.25065 	-0.29345 	-0.29745 	-0.22250 	-0.18480 	-0.23720 	-0.27815 	-0.13705 	-0.04030 	-0.12020 	-0.19120 	-0.11590 	-0.32820 	-0.01160 	-0.10160 	0.04570 	0.18000 	0.12755 	0.31765 	0.13570 	0.27960 	0.14205 	0.15750 	0.09655 	0.04115 	-0.01320 
-0.23795 	-0.28935 	-0.31015 	-0.31680 	-0.24465 	-0.18175 	-0.25655 	-0.31050 	-0.16080 	-0.05450 	-0.15245 	-0.24505 	-0.13390 	-0.38085 	-0.05630 	-0.16255 	0.00645 	0.16505 	0.08215 	0.27365 	0.08880 	0.24215 	0.10260 	0.11065 	0.04835 	0.01300 	-0.03415 
-0.24615 	-0.32055 	-0.31855 	-0.32835 	-0.26300 	-0.17530 	-0.26815 	-0.33460 	-0.17990 	-0.06575 	-0.17865 	-0.29240 	-0.14420 	-0.42230 	-0.09690 	-0.21920 	-0.02845 	0.14810 	0.03985 	0.23105 	0.04405 	0.20675 	0.06560 	0.06525 	0.00245 	-0.01295 	-0.05330 
-0.24690 	-0.34090 	-0.31715 	-0.33065 	-0.27605 	-0.16540 	-0.27045 	-0.34840 	-0.19310 	-0.07360 	-0.19725 	-0.33130 	-0.14605 	-0.45085 	-0.13170 	-0.26965 	-0.05765 	0.13000 	0.00215 	0.19135 	0.00280 	0.17450 	0.03215 	0.02290 	-0.03975 	-0.03560 	-0.06930 
-0.23985 	-0.34790 	-0.30565 	-0.32330 	-0.28275 	-0.15275 	-0.26300 	-0.35085 	-0.19965 	-0.07825 	-0.20725 	-0.36065 	-0.13955 	-0.46555 	-0.16000 	-0.31265 	-0.08075 	0.11130 	-0.03020 	0.15540 	-0.03405 	0.14570 	0.00300 	-0.01545 	-0.07740 	-0.05410 	-0.08160 
-0.22500 	-0.34030 	-0.28420 	-0.30645 	-0.28250 	-0.13790 	-0.24620 	-0.34200 	-0.19900 	-0.08045 	-0.20865 	-0.38015 	-0.12515 	-0.46675 	-0.18150 	-0.34770 	-0.09790 	0.09190 	-0.05695 	0.12365 	-0.06610 	0.12015 	-0.02205 	-0.04930 	-0.11050 	-0.06840 	-0.09005 
-0.20340 	-0.31825 	-0.25410 	-0.28105 	-0.27505 	-0.12190 	-0.22110 	-0.32265 	-0.19110 	-0.08150 	-0.20230 	-0.39055 	-0.10425 	-0.45585 	-0.19660 	-0.37485 	-0.10965 	0.07140 	-0.07855 	0.09575 	-0.09350 	0.09715 	-0.04335 	-0.07875 	-0.13930 	-0.07880 	-0.09500 
-0.17635 	-0.28280 	-0.21700 	-0.24870 	-0.26055 	-0.10535 	-0.18940 	-0.29460 	-0.17620 	-0.08270 	-0.18955 	-0.39285 	-0.07840 	-0.43510 	-0.20630 	-0.39475 	-0.11690 	0.04955 	-0.09585 	0.07110 	-0.11660 	0.07575 	-0.06190 	-0.10415 	-0.16475 	-0.08600 	-0.09695 
-0.14555 	-0.23630 	-0.17515 	-0.21135 	-0.23970 	-0.08895 	-0.15325 	-0.26020 	-0.15500 	-0.08545 	-0.17220 	-0.38875 	-0.04990 	-0.40735 	-0.21180 	-0.40840 	-0.12065 	0.02585 	-0.11000 	0.04875 	-0.13615 	0.05490 	-0.07865 	-0.12620 	-0.18770 	-0.09095 	-0.09675 
-0.11280 	-0.18180 	-0.13075 	-0.17120 	-0.21340 	-0.07285 	-0.11495 	-0.22200 	-0.12840 	-0.09035 	-0.15220 	-0.38000 	-0.02125 	-0.37550 	-0.21465 	-0.41685 	-0.12215 	0.00040 	-0.12225 	0.02785 	-0.15290 	0.03370 	-0.09460 	-0.14575 	-0.20910 	-0.09460 	-0.09510 
-0.07995 	-0.12275 	-0.08635 	-0.13045 	-0.18300 	-0.05715 	-0.07655 	-0.18260 	-0.09760 	-0.09740 	-0.13170 	-0.36825 	0.00505 	-0.34220 	-0.21605 	-0.42135 	-0.12270 	-0.02650 	-0.13375 	0.00745 	-0.16770 	0.01130 	-0.11065 	-0.16345 	-0.22975 	-0.09775 	-0.09275 
-0.04835 	-0.06290 	-0.04395 	-0.09105 	-0.14985 	-0.04150 	-0.04025 	-0.14445 	-0.06415 	-0.10575 	-0.11225 	-0.35520 	0.02680 	-0.30950 	-0.21735 	-0.42305 	-0.12380 	-0.05420 	-0.14550 	-0.01320 	-0.18155 	-0.01300 	-0.12725 	-0.17995 	-0.25045 	-0.10120 	-0.09045 
-0.01945 	-0.00605 	-0.00550 	-0.05495 	-0.11530 	-0.02585 	-0.00780 	-0.10975 	-0.02965 	-0.11385 	-0.09540 	-0.34240 	0.04210 	-0.27895 	-0.21965 	-0.42330 	-0.12700 	-0.08205 	-0.15840 	-0.03470 	-0.19530 	-0.04005 	-0.14490 	-0.19590 	-0.27165 	-0.10560 	-0.08870 
0.00555 	0.04430 	0.02740 	-0.02370 	-0.08085 	-0.01020 	0.01920 	-0.08030 	0.00405 	-0.12055 	-0.08260 	-0.33120 	0.04975 	-0.25135 	-0.22400 	-0.42330 	-0.13405 	-0.10960 	-0.17315 	-0.05770 	-0.21005 	-0.07060 	-0.16385 	-0.21170 	-0.29385 	-0.11145 	-0.08815 
0.02570 	0.08505 	0.05330 	0.00145 	-0.04820 	0.00495 	0.03935 	-0.05750 	0.03505 	-0.12495 	-0.07465 	-0.32265 	0.04915 	-0.22720 	-0.23100 	-0.42400 	-0.14610 	-0.13675 	-0.19025 	-0.08270 	-0.22650 	-0.10505 	-0.18420 	-0.22795 	-0.31730 	-0.11880 	-0.08915 
0.04020 	0.11375 	0.07130 	0.01970 	-0.01880 	0.01880 	0.05190 	-0.04190 	0.06160 	-0.12700 	-0.07210 	-0.31710 	0.04015 	-0.20650 	-0.24115 	-0.42625 	-0.16385 	-0.16320 	-0.20975 	-0.10980 	-0.24530 	-0.14355 	-0.20575 	-0.24475 	-0.34175 	-0.12780 	-0.09195 
0.04840 	0.12880 	0.08080 	0.03050 	0.00585 	0.03050 	0.05640 	-0.03365 	0.08225 	-0.12735 	-0.07505 	-0.31470 	0.02310 	-0.18900 	-0.25445 	-0.43025 	-0.18715 	-0.18855 	-0.23170 	-0.13885 	-0.26635 	-0.18575 	-0.22800 	-0.26205 	-0.36670 	-0.13780 	-0.09615 
0.04985 	0.12965 	0.08165 	0.03380 	0.02455 	0.03920 	0.05285 	-0.03250 	0.09585 	-0.12700 	-0.08330 	-0.31510 	-0.00130 	-0.17425 	-0.27060 	-0.43595 	-0.21530 	-0.21215 	-0.25540 	-0.16940 	-0.28925 	-0.23075 	-0.25030 	-0.27960 	-0.39125 	-0.14815 	-0.10110 
0.04450 	0.11665 	0.07390 	0.02965 	0.03650 	0.04430 	0.04160 	-0.03775 	0.10145 	-0.12695 	-0.09625 	-0.31760 	-0.03220 	-0.16155 	-0.28915 	-0.44295 	-0.24730 	-0.23285 	-0.28040 	-0.20075 	-0.31340 	-0.27735 	-0.27190 	-0.29690 	-0.41435 	-0.15785 	-0.10590 
0.03240 	0.09105 	0.05795 	0.01845 	0.04100 	0.04555 	0.02300 	-0.04900 	0.09840 	-0.12785 	-0.11350 	-0.32180 	-0.06840 	-0.15020 	-0.30965 	-0.45105 	-0.28200 	-0.24965 	-0.30600 	-0.23235 	-0.33790 	-0.32405 	-0.29210 	-0.31350 	-0.43515 	-0.16615 	-0.10945 
0.01400 	0.05500 	0.03445 	0.00055 	0.03790 	0.04315 	-0.00225 	-0.06570 	0.08630 	-0.12985 	-0.13455 	-0.32750 	-0.10850 	-0.13945 	-0.33155 	-0.45995 	-0.31870 	-0.26145 	-0.33170 	-0.26375 	-0.36210 	-0.36960 	-0.31045 	-0.32900 	-0.45280 	-0.17245 	-0.11125 
-0.00980 	0.01120 	0.00420 	-0.02350 	0.02705 	0.03765 	-0.03355 	-0.08750 	0.06480 	-0.13275 	-0.15890 	-0.33500 	-0.15095 	-0.12855 	-0.35475 	-0.46980 	-0.35650 	-0.26780 	-0.35705 	-0.29445 	-0.38580 	-0.41275 	-0.32670 	-0.34310 	-0.46700 	-0.17650 	-0.11085 
-0.03800 	-0.03710 	-0.03185 	-0.05305 	0.00850 	0.02990 	-0.07015 	-0.11415 	0.03400 	-0.13590 	-0.18620 	-0.34480 	-0.19415 	-0.11715 	-0.37880 	-0.48065 	-0.39470 	-0.26840 	-0.38175 	-0.32435 	-0.40860 	-0.45245 	-0.34090 	-0.35580 	-0.47750 	-0.17830 	-0.10840 
-0.06915 	-0.08665 	-0.07260 	-0.08740 	-0.01750 	0.02060 	-0.11130 	-0.14540 	-0.00575 	-0.13865 	-0.21615 	-0.35750 	-0.23655 	-0.10510 	-0.40345 	-0.49285 	-0.43275 	-0.26365 	-0.40560 	-0.35330 	-0.43065 	-0.48795 	-0.35320 	-0.36695 	-0.48445 	-0.17815 	-0.10425 
-0.10195 	-0.13450 	-0.11685 	-0.12555 	-0.05040 	0.01040 	-0.15600 	-0.18050 	-0.05350 	-0.14055 	-0.24820 	-0.37370 	-0.27695 	-0.09255 	-0.42840 	-0.50645 	-0.47000 	-0.25460 	-0.42850 	-0.38125 	-0.45180 	-0.51870 	-0.36400 	-0.37670 	-0.48825 	-0.17645 	-0.09900 
-0.13500 	-0.17810 	-0.16360 	-0.16635 	-0.08915 	-0.00055 	-0.20330 	-0.21860 	-0.10780 	-0.14110 	-0.28185 	-0.39340 	-0.31425 	-0.07995 	-0.45335 	-0.52140 	-0.50555 	-0.24270 	-0.45035 	-0.40815 	-0.47215 	-0.54435 	-0.37370 	-0.38535 	-0.48935 	-0.17390 	-0.09365 
-0.16730 	-0.21570 	-0.21150 	-0.20825 	-0.13245 	-0.01190 	-0.25195 	-0.25830 	-0.16655 	-0.14000 	-0.31635 	-0.41615 	-0.34795 	-0.06815 	-0.47785 	-0.53740 	-0.53860 	-0.23005 	-0.47100 	-0.43380 	-0.49160 	-0.56500 	-0.38275 	-0.39300 	-0.48840 	-0.17110 	-0.08905 
-0.19785 	-0.24630 	-0.25950 	-0.24995 	-0.17855 	-0.02360 	-0.30085 	-0.29820 	-0.22730 	-0.13705 	-0.35085 	-0.44105 	-0.37755 	-0.05820 	-0.50115 	-0.55385 	-0.56820 	-0.21900 	-0.49025 	-0.45810 	-0.50980 	-0.58085 	-0.39155 	-0.39975 	-0.48615 	-0.16875 	-0.08605 
-0.22595 	-0.26970 	-0.30645 	-0.28970 	-0.22525 	-0.03525 	-0.34855 	-0.33660 	-0.28725 	-0.13230 	-0.38425 	-0.46685 	-0.40310 	-0.05115 	-0.52265 	-0.56960 	-0.59355 	-0.21185 	-0.50765 	-0.48050 	-0.52625 	-0.59215 	-0.40010 	-0.40565 	-0.48295 	-0.16745 	-0.08505 
-0.25095 	-0.28640 	-0.35115 	-0.32595 	-0.27010 	-0.04650 	-0.39355 	-0.37175 	-0.34345 	-0.12600 	-0.41525 	-0.49155 	-0.42440 	-0.04770 	-0.54135 	-0.58350 	-0.61355 	-0.21025 	-0.52255 	-0.50050 	-0.54015 	-0.59915 	-0.40825 	-0.41030 	-0.47915 	-0.16745 	-0.08620 
-0.27250 	-0.29730 	-0.39265 	-0.35735 	-0.31100 	-0.05685 	-0.43450 	-0.40200 	-0.39330 	-0.11870 	-0.44255 	-0.51335 	-0.44125 	-0.04820 	-0.55615 	-0.59400 	-0.62725 	-0.21525 	-0.53420 	-0.51715 	-0.55055 	-0.60215 	-0.41555 	-0.41330 	-0.47465 	-0.16860 	-0.08935 
-0.29030 	-0.30395 	-0.42995 	-0.38260 	-0.34580 	-0.06595 	-0.47010 	-0.42610 	-0.43450 	-0.11110 	-0.46470 	-0.53025 	-0.45355 	-0.05240 	-0.56615 	-0.59955 	-0.63375 	-0.22685 	-0.54160 	-0.52950 	-0.55640 	-0.60105 	-0.42125 	-0.41405 	-0.46910 	-0.17070 	-0.09380 
-0.30425 	-0.30795 	-0.46220 	-0.40105 	-0.37320 	-0.07340 	-0.49910 	-0.44305 	-0.46565 	-0.10360 	-0.48070 	-0.54060 	-0.46110 	-0.05945 	-0.57035 	-0.59870 	-0.63245 	-0.24420 	-0.54400 	-0.53680 	-0.55680 	-0.59570 	-0.42445 	-0.41190 	-0.46210 	-0.17320 	-0.09900 
-0.31425 	-0.31110 	-0.48880 	-0.41225 	-0.39215 	-0.07895 	-0.52075 	-0.45250 	-0.48605 	-0.09675 	-0.48955 	-0.54330 	-0.46375 	-0.06840 	-0.56795 	-0.59025 	-0.62275 	-0.26535 	-0.54050 	-0.53815 	-0.55095 	-0.58570 	-0.42430 	-0.40630 	-0.45310 	-0.17535 	-0.10420 
-0.32030 	-0.31495 	-0.50920 	-0.41605 	-0.40200 	-0.08235 	-0.53445 	-0.45435 	-0.49570 	-0.09105 	-0.49055 	-0.53765 	-0.46150 	-0.07800 	-0.55830 	-0.57340 	-0.60450 	-0.28790 	-0.53060 	-0.53290 	-0.53815 	-0.57055 	-0.41990 	-0.39675 	-0.44150 	-0.17660 	-0.10880 
-0.32230 	-0.32065 	-0.52290 	-0.41240 	-0.40245 	-0.08360 	-0.53970 	-0.44885 	-0.49515 	-0.08655 	-0.48335 	-0.52330 	-0.45400 	-0.08690 	-0.54095 	-0.54755 	-0.57765 	-0.30870 	-0.51385 	-0.52060 	-0.51825 	-0.54970 	-0.41050 	-0.38285 	-0.42680 	-0.17595 	-0.11205 
-0.32015 	-0.32875 	-0.52955 	-0.40140 	-0.39335 	-0.08285 	-0.53630 	-0.43625 	-0.48515 	-0.08340 	-0.46755 	-0.50040 	-0.44100 	-0.09385 	-0.51565 	-0.51265 	-0.54240 	-0.32460 	-0.48985 	-0.50105 	-0.49090 	-0.52275 	-0.39535 	-0.36405 	-0.40825 	-0.17275 	-0.11320 
-0.31395 	-0.33950 	-0.52905 	-0.38345 	-0.37490 	-0.08030 	-0.52440 	-0.41700 	-0.46670 	-0.08100 	-0.44345 	-0.46905 	-0.42215 	-0.09760 	-0.48255 	-0.46905 	-0.49925 	-0.33270 	-0.45885 	-0.47435 	-0.45635 	-0.48945 	-0.37420 	-0.34035 	-0.38565 	-0.16645 	-0.11180 
-0.30385 	-0.35235 	-0.52145 	-0.35935 	-0.34810 	-0.07645 	-0.50445 	-0.39165 	-0.44125 	-0.07870 	-0.41150 	-0.43015 	-0.39705 	-0.09740 	-0.44220 	-0.41755 	-0.44910 	-0.33100 	-0.42115 	-0.44100 	-0.41490 	-0.44995 	-0.34695 	-0.31170 	-0.35855 	-0.15670 	-0.10735 
-0.29050 	-0.36655 	-0.50755 	-0.33020 	-0.31460 	-0.07200 	-0.47750 	-0.36135 	-0.41055 	-0.07590 	-0.37280 	-0.38480 	-0.36575 	-0.09295 	-0.39555 	-0.35960 	-0.39335 	-0.31870 	-0.37780 	-0.40190 	-0.36765 	-0.40520 	-0.31425 	-0.27865 	-0.32730 	-0.14360 	-0.10000 
-0.27465 	-0.38110 	-0.48825 	-0.29770 	-0.27670 	-0.06780 	-0.44470 	-0.32730 	-0.37675 	-0.07205 	-0.32870 	-0.33470 	-0.32870 	-0.08470 	-0.34420 	-0.29705 	-0.33385 	-0.29660 	-0.33015 	-0.35860 	-0.31585 	-0.35635 	-0.27715 	-0.24205 	-0.29245 	-0.12790 	-0.09015 
-0.25725 	-0.39475 	-0.46500 	-0.26360 	-0.23690 	-0.06455 	-0.40775 	-0.29105 	-0.34190 	-0.06720 	-0.28080 	-0.28160 	-0.28700 	-0.07345 	-0.28990 	-0.23210 	-0.27260 	-0.26665 	-0.27990 	-0.31270 	-0.26135 	-0.30535 	-0.23720 	-0.20325 	-0.25485 	-0.11075 	-0.07860 
-0.23940 	-0.40600 	-0.43915 	-0.22940 	-0.19745 	-0.06280 	-0.36825 	-0.25430 	-0.30785 	-0.06195 	-0.23110 	-0.22730 	-0.24210 	-0.06070 	-0.23460 	-0.16690 	-0.21160 	-0.23195 	-0.22895 	-0.26610 	-0.20620 	-0.25430 	-0.19630 	-0.16380 	-0.21590 	-0.09355 	-0.06660 
-0.22180 	-0.41355 	-0.41210 	-0.19635 	-0.16000 	-0.06300 	-0.32785 	-0.21825 	-0.27540 	-0.05725 	-0.18115 	-0.17370 	-0.19585 	-0.04770 	-0.18010 	-0.10340 	-0.15270 	-0.19585 	-0.17900 	-0.22050 	-0.15230 	-0.20520 	-0.15635 	-0.12525 	-0.17675 	-0.07765 	-0.05545 
-0.20525 	-0.41610 	-0.38500 	-0.16530 	-0.12545 	-0.06515 	-0.28780 	-0.18405 	-0.24480 	-0.05455 	-0.13240 	-0.12205 	-0.15010 	-0.03590 	-0.12785 	-0.04330 	-0.09745 	-0.16125 	-0.13160 	-0.17740 	-0.10140 	-0.16000 	-0.11925 	-0.08915 	-0.13865 	-0.06445 	-0.04645 
-0.19045 	-0.41280 	-0.35890 	-0.13675 	-0.09410 	-0.06925 	-0.24935 	-0.15250 	-0.21530 	-0.05490 	-0.08600 	-0.07350 	-0.10645 	-0.02660 	-0.07925 	0.01220 	-0.04710 	-0.13040 	-0.08800 	-0.13805 	-0.05500 	-0.12020 	-0.08665 	-0.05705 	-0.10285 	-0.05515 	-0.04080 
-0.17800 	-0.40330 	-0.33445 	-0.11070 	-0.06575 	-0.07515 	-0.21335 	-0.12385 	-0.18570 	-0.05935 	-0.04300 	-0.02890 	-0.06620 	-0.02030 	-0.03505 	0.06225 	-0.00245 	-0.10425 	-0.04925 	-0.10335 	-0.01405 	-0.08690 	-0.05990 	-0.03005 	-0.07045 	-0.05075 	-0.03975 
-0.16845 	-0.38785 	-0.31225 	-0.08705 	-0.03975 	-0.08250 	-0.18055 	-0.09810 	-0.15440 	-0.06785 	-0.00395 	0.01150 	-0.03000 	-0.01720 	0.00405 	0.10645 	0.03605 	-0.08260 	-0.01595 	-0.07380 	0.02095 	-0.06050 	-0.04005 	-0.00910 	-0.04235 	-0.05180 	-0.04415 
-0.16220 	-0.36715 	-0.29245 	-0.06525 	-0.01520 	-0.09045 	-0.15100 	-0.07480 	-0.11980 	-0.07970 	0.03095 	0.04780 	0.00245 	-0.01700 	0.03795 	0.14475 	0.06850 	-0.06405 	0.01160 	-0.04950 	0.04980 	-0.04070 	-0.02745 	0.00540 	-0.01895 	-0.05875 	-0.05450 
-0.15925 	-0.34245 	-0.27485 	-0.04485 	0.00905 	-0.09800 	-0.12475 	-0.05300 	-0.08085 	-0.09340 	0.06190 	0.08050 	0.03215 	-0.01895 	0.06700 	0.17765 	0.09545 	-0.04685 	0.03385 	-0.03010 	0.07305 	-0.02675 	-0.02195 	0.01355 	-0.00030 	-0.07125 	-0.07075 
-0.15945 	-0.31525 	-0.25900 	-0.02490 	0.03390 	-0.10370 	-0.10120 	-0.03160 	-0.03700 	-0.10685 	0.08970 	0.11030 	0.06075 	-0.02210 	0.09200 	0.20595 	0.11790 	-0.02890 	0.05155 	-0.01475 	0.09150 	-0.01710 	-0.02275 	0.01605 	0.01415 	-0.08850 	-0.09195 
-0.16215 	-0.28720 	-0.24405 	-0.00465 	0.06000 	-0.10615 	-0.07965 	-0.00910 	0.01165 	-0.11790 	0.11535 	0.13850 	0.09055 	-0.02550 	0.11420 	0.23085 	0.13710 	-0.00840 	0.06605 	-0.00225 	0.10655 	-0.00990 	-0.02830 	0.01410 	0.02560 	-0.10900 	-0.11660 
-0.16625 	-0.25975 	-0.22915 	0.01675 	0.08780 	-0.10380 	-0.05890 	0.01580 	0.06470 	-0.12420 	0.14055 	0.16640 	0.12400 	-0.02775 	0.13515 	0.25400 	0.15480 	0.01620 	0.07920 	0.00915 	0.11975 	-0.00275 	-0.03655 	0.00965 	0.03575 	-0.13055 	-0.14245 
-0.17035 	-0.23415 	-0.21295 	0.04020 	0.11725 	-0.09540 	-0.03750 	0.04465 	0.12155 	-0.12385 	0.16710 	0.19605 	0.16355 	-0.02730 	0.15695 	0.27735 	0.17300 	0.04615 	0.09330 	0.02150 	0.13325 	0.00675 	-0.04475 	0.00500 	0.04695 	-0.15055 	-0.16665 
-0.17265 	-0.21090 	-0.19400 	0.06665 	0.14835 	-0.07960 	-0.01390 	0.07900 	0.18195 	-0.11475 	0.19720 	0.22940 	0.21150 	-0.02215 	0.18210 	0.30330 	0.19415 	0.08260 	0.11115 	0.03730 	0.14950 	0.02120 	-0.04975 	0.00305 	0.06170 	-0.16595 	-0.18600 
-0.17110 	-0.18980 	-0.17065 	0.09715 	0.18120 	-0.05500 	0.01390 	0.12040 	0.24600 	-0.09495 	0.23335 	0.26880 	0.26970 	-0.00980 	0.21320 	0.33460 	0.22090 	0.12680 	0.13555 	0.05950 	0.17115 	0.04345 	-0.04805 	0.00710 	0.08320 	-0.17345 	-0.19720 
-0.16325 	-0.16980 	-0.14090 	0.13315 	0.21620 	-0.02015 	0.04810 	0.17065 	0.31415 	-0.06210 	0.27805 	0.31685 	0.33945 	0.01275 	0.25320 	0.37425 	0.25640 	0.17990 	0.16990 	0.09105 	0.20130 	0.07615 	-0.03610 	0.02060 	0.11480 	-0.16950 	-0.19680 
-0.14640 	-0.14870 	-0.10235 	0.17645 	0.25450 	0.02640 	0.09105 	0.23165 	0.38720 	-0.01370 	0.33415 	0.37600 	0.42200 	0.04885 	0.30525 	0.42550 	0.30365 	0.24340 	0.21765 	0.13540 	0.24305 	0.12220 	-0.00995 	0.04725 	0.15980 	-0.15055 	-0.18155 
-0.11765 	-0.12340 	-0.05265 	0.22900 	0.29770 	0.08635 	0.14525 	0.30530 	0.46630 	0.05275 	0.40440 	0.44885 	0.51805 	0.10200 	0.37250 	0.49145 	0.36550 	0.31865 	0.28205 	0.19590 	0.29960 	0.18455 	0.03400 	0.09065 	0.22165 	-0.11325 	-0.14820 
-0.07410 	-0.08990 	0.01095 	0.29305 	0.34800 	0.16135 	0.21350 	0.39340 	0.55290 	0.13980 	0.49140 	0.53780 	0.62850 	0.17520 	0.45805 	0.57520 	0.44470 	0.40725 	0.36655 	0.27595 	0.37420 	0.26595 	0.09920 	0.15435 	0.30340 	-0.05435 	-0.09385 
-0.01285 	-0.04375 	0.09095 	0.37085 	0.40785 	0.25295 	0.29815 	0.49765 	0.64855 	0.24950 	0.59785 	0.64495 	0.75405 	0.27135 	0.56485 	0.67975 	0.54380 	0.51020 	0.47415 	0.37890 	0.47010 	0.36890 	0.18875 	0.24145 	0.40805 	0.02925 	-0.01575 
0.06880 	0.01970 	0.18975 	0.46455 	0.47960 	0.36250 	0.40165 	0.61930 	0.75495 	0.38355 	0.72580 	0.77220 	0.89580 	0.39285 	0.69560 	0.80790 	0.66475 	0.62890 	0.60770 	0.50765 	0.59025 	0.49590 	0.30540 	0.35490 	0.53810 	0.14035 	0.08855 
0.17305 	0.10505 	0.30960 	0.57590 	0.56560 	0.49090 	0.52605 	0.75930 	0.87395 	0.54360 	0.87720 	0.92080 	1.05450 	0.54190 	0.85265 	0.96175 	0.80925 	0.76470 	0.76960 	0.66485 	0.73750 	0.64910 	0.45150 	0.49745 	0.69600 	0.28150 	0.22140 
0.30200 	0.21650 	0.45215 	0.70640 	0.66815 	0.63885 	0.67285 	0.91795 	1.00710 	0.73075 	1.05345 	1.09125 	1.23130 	0.72050 	1.03810 	1.14305 	0.97875 	0.91940 	0.96170 	0.85270 	0.91405 	0.83045 	0.62905 	0.67140 	0.88400 	0.45495 	0.38525 
0.45710 	0.35755 	0.61870 	0.85690 	0.78900 	0.80690 	0.84325 	1.09490 	1.15605 	0.94620 	1.25540 	1.28320 	1.42690 	0.93060 	1.25300 	1.35270 	1.17405 	1.09510 	1.18520 	1.07250 	1.12185 	1.04150 	0.83940 	0.87850 	1.10385 	0.66270 	0.58195 
0.63905 	0.53045 	0.80975 	1.02780 	0.92965 	0.99565 	1.03740 	1.28910 	1.32195 	1.19105 	1.48285 	1.49540 	1.64180 	1.17365 	1.49775 	1.59055 	1.39560 	1.29420 	1.44050 	1.32485 	1.36155 	1.28350 	1.08330 	1.11980 	1.35695 	0.90600 	0.81315 
0.84795 	0.73610 	1.02500 	1.21875 	1.09090 	1.20580 	1.25470 	1.49855 	1.50590 	1.46610 	1.73485 	1.72555 	1.87605 	1.45050 	1.77155 	1.85555 	1.64305 	1.51910 	1.72670 	1.60895 	1.63300 	1.55665 	1.36040 	1.39535 	1.64365 	1.18500 	1.07955 
1.08260 	0.97335 	1.26285 	1.42830 	1.27235 	1.43750 	1.49330 	1.72035 	1.70835 	1.77115 	2.00895 	1.97030 	2.12850 	1.76075 	2.07200 	2.14505 	1.91470 	1.77145 	2.04150 	1.92255 	1.93405 	1.86015 	1.66875 	1.70350 	1.96285 	1.49850 	1.38045 
1.34055 	1.23915 	1.52025 	1.65370 	1.47205 	1.69020 	1.74985 	1.95035 	1.92865 	2.10470 	2.30115 	2.22480 	2.39690 	2.10245 	2.39495 	2.45475 	2.20730 	2.05125 	2.38070 	2.26165 	2.26100 	2.19125 	2.00485 	2.04070 	2.31160 	1.84325 	1.71330 
1.61725 	1.52770 	1.79230 	1.89065 	1.68620 	1.96155 	2.01930 	2.18310 	2.16455 	2.46295 	2.60575 	2.48290 	2.67700 	2.47140 	2.73435 	2.77855 	2.51540 	2.35605 	2.73795 	2.61985 	2.60765 	2.54495 	2.36265 	2.40115 	2.68430 	2.21365 	2.07320 
1.90615 	1.83065 	2.07225 	2.13290 	1.90890 	2.24690 	2.29445 	2.41175 	2.41110 	2.83920 	2.91480 	2.73685 	2.96260 	2.86060 	3.08150 	3.10775 	2.83085 	2.68020 	3.10445 	2.98840 	2.96530 	2.91340 	2.73360 	2.77625 	3.07230 	2.60100 	2.45210 
2.19810 	2.13665 	2.35065 	2.37200 	2.13165 	2.53845 	2.56610 	2.62760 	2.66030 	3.22290 	3.21805 	2.97690 	3.24505 	3.25965 	3.42530 	3.43140 	3.14275 	3.01395 	3.46865 	3.35555 	3.32210 	3.28515 	3.10615 	3.15405 	3.46360 	2.99370 	2.83880 
2.48125 	2.43175 	2.61560 	2.59695 	2.34320 	2.82495 	2.82225 	2.82005 	2.90110 	3.59980 	3.50270 	3.19115 	3.51315 	3.65455 	3.75180 	3.73570 	3.43720 	3.34330 	3.81605 	3.70670 	3.66345 	3.64540 	3.46540 	3.51940 	3.84265 	3.37650 	3.21865 
2.74075 	2.69900 	2.85275 	2.79435 	2.52965 	3.09170 	3.04865 	2.97655 	3.11915 	3.95185 	3.75360 	3.36600 	3.75320 	4.02775 	4.04425 	4.00420 	3.69770 	3.65010 	4.12945 	4.02440 	3.97155 	3.97570 	3.79360 	3.85425 	4.19050 	3.73105 	3.57370 
2.95985 	2.91980 	3.04575 	2.94880 	2.67545 	3.32115 	3.22910 	3.08290 	3.29790 	4.25825 	3.95365 	3.48585 	3.94940 	4.35850 	4.28385 	4.21830 	3.90555 	3.91255 	4.38930 	4.28890 	4.22620 	4.25490 	4.07045 	4.13760 	4.48555 	4.03635 	3.88340 
3.12025 	3.07470 	3.17720 	3.04370 	2.76370 	3.49415 	3.34635 	3.12435 	3.41960 	4.49690 	4.08485 	3.53500 	4.08435 	4.62460 	4.45090 	4.35865 	4.04120 	4.10685 	4.57505 	4.47920 	4.40620 	4.46030 	4.27420 	4.34710 	4.70460 	4.26980 	4.12515 
3.20445 	3.14575 	3.23080 	3.06355 	2.77885 	3.59245 	3.38430 	3.08690 	3.46745 	4.64685 	4.13040 	3.49860 	4.14155 	4.80420 	4.52670 	4.40680 	4.08655 	4.20915 	4.66695 	4.57560 	4.49105 	4.56955 	4.38370 	4.46110 	4.82490 	4.40905 	4.27675 
3.19820 	3.11905 	3.19390 	2.99635 	2.70895 	3.60075 	3.33040 	2.96050 	3.42810 	4.69150 	4.07715 	3.36625 	4.10710 	4.87845 	4.49630 	4.34825 	4.02750 	4.19930 	4.64920 	4.56185 	4.46430 	4.56405 	4.38130 	4.46125 	4.82705 	4.43505 	4.31865 
3.09330 	2.98805 	3.06045 	2.83680 	2.54895 	3.51045 	3.17890 	2.74170 	3.29495 	4.62105 	3.91900 	3.13445 	3.97345 	4.83545 	4.35185 	4.17580 	3.85725 	4.06410 	4.51280 	4.42900 	4.31660 	4.43210 	4.25620 	4.33620 	4.69880 	4.33535 	4.23780 
2.89090 	2.75605 	2.83360 	2.58870 	2.30285 	3.32190 	2.93335 	2.43635 	3.07045 	4.43575 	3.65940 	2.80930 	3.74145 	4.67240 	4.09540 	3.89215 	3.57895 	3.80060 	4.25885 	4.17800 	4.04885 	4.17215 	4.00745 	4.08475 	4.43830 	4.10730 	4.03080 
2.60185 	2.43715 	2.52705 	2.26655 	1.98505 	3.04565 	2.60785 	2.06070 	2.76740 	4.14600 	3.31260 	2.40770 	3.42220 	4.39750 	3.74010 	3.51135 	3.20705 	3.41810 	3.89960 	3.82125 	3.67350 	3.79440 	3.64555 	3.71745 	4.05555 	3.76005 	3.70570 
2.24665 	2.05525 	2.16350 	1.89360 	1.61875 	2.70130 	2.22565 	1.64030 	2.40770 	3.77180 	2.90250 	1.95595 	3.03560 	4.02890 	3.30950 	3.05800 	2.76575 	2.93725 	3.45780 	3.38175 	3.21365 	3.32030 	3.19210 	3.25600 	3.57270 	3.31395 	3.28175 
1.85190 	1.64060 	1.77190 	1.49915 	1.23260 	2.31455 	1.81625 	1.20640 	2.01870 	3.33950 	2.45945 	1.48650 	2.60800 	3.59205 	2.83395 	2.56365 	2.28640 	2.38730 	2.96360 	2.88980 	2.70020 	2.77945 	2.67645 	2.73035 	3.02025 	2.79765 	2.78660 
1.44650 	1.22515 	1.38260 	1.11355 	0.85620 	1.91305 	1.41075 	0.79140 	1.62925 	2.87720 	2.01570 	1.03330 	2.16780 	3.11540 	2.34640 	2.06225 	1.80225 	1.80195 	2.44985 	2.37880 	2.16720 	2.20525 	2.13150 	2.17420 	2.43325 	2.24410 	2.25220 
1.05710 	0.83800 	1.02295 	0.76410 	0.51540 	1.52215 	1.03715 	0.42410 	1.26490 	2.41135 	1.60040 	0.62665 	1.74115 	2.62605 	1.87760 	1.58535 	1.34425 	1.21440 	1.94770 	1.88010 	1.64675 	1.63050 	1.58905 	1.62010 	1.84590 	1.68560 	1.71015 
0.70495 	0.50175 	0.71360 	0.47110 	0.22935 	1.16140 	0.71680 	0.12615 	0.94475 	1.96275 	1.23630 	0.28970 	1.34890 	2.14690 	1.45205 	1.15830 	0.93710 	0.65325 	1.48250 	1.41945 	1.16555 	1.08275 	1.07580 	1.09560 	1.28745 	1.14980 	1.18745 
0.40365 	0.23025 	0.46725 	0.24635 	0.00885 	0.84335 	0.46260 	-0.08990 	0.68010 	1.54560 	0.93745 	0.03615 	1.00465 	1.69420 	1.08620 	0.79785 	0.59710 	0.14035 	1.07175 	1.01465 	0.74220 	0.58260 	0.61110 	0.62060 	0.77950 	0.65715 	0.70455 
0.15950 	0.02875 	0.28780 	0.09320 	-0.14390 	0.57310 	0.27895 	-0.22070 	0.47435 	1.16685 	0.70940 	-0.12940 	0.71500 	1.27785 	0.78800 	0.51210 	0.33215 	-0.31035 	0.72490 	0.67520 	0.38715 	0.14255 	0.20650 	0.20705 	0.33550 	0.22045 	0.27435 
-0.02785 	-0.10510 	0.17235 	0.00765 	-0.23300 	0.34950 	0.16275 	-0.27075 	0.32475 	0.82785 	0.54995 	-0.21085 	0.48035 	0.90170 	0.55795 	0.30135 	0.14250 	-0.69225 	0.44405 	0.40335 	0.10315 	-0.23200 	-0.13375 	-0.14025 	-0.03885 	-0.15435 	-0.09690 
-0.16350 	-0.17950 	0.11235 	-0.01955 	-0.26760 	0.16725 	0.10545 	-0.25040 	0.22380 	0.52565 	0.45135 	-0.21825 	0.29655 	0.56565 	0.39080 	0.15995 	0.02245 	-1.00490 	0.22575 	0.19565 	-0.11280 	-0.54135 	-0.41070 	-0.42250 	-0.34375 	-0.46700 	-0.40825 
-0.25570 	-0.20645 	0.09605 	-0.00115 	-0.25935 	0.01860 	0.09510 	-0.17415 	0.16165 	0.25515 	0.40210 	-0.16590 	0.15670 	0.26665 	0.27735 	0.07805 	-0.03770 	-1.25220 	0.06260 	0.04455 	-0.26775 	-0.79000 	-0.62925 	-0.64465 	-0.58385 	-0.72100 	-0.66245 
-0.31425 	-0.20000 	0.11010 	0.04880 	-0.22095 	-0.10510 	0.11770 	-0.05835 	0.12730 	0.01030 	0.38870 	-0.07065 	0.05230 	0.00050 	0.20625 	0.04340 	-0.05010 	-1.44090 	-0.05475 	-0.05970 	-0.37145 	-0.98450 	-0.79665 	-0.81400 	-0.76625 	-0.92230 	-0.86445 
-0.34935 	-0.17460 	0.14075 	0.11585 	-0.16495 	-0.21185 	0.15895 	0.08005 	0.11000 	-0.21455 	0.39725 	0.05015 	-0.02545 	-0.23715 	0.16525 	0.04255 	-0.02805 	-1.57935 	-0.13675 	-0.12790 	-0.43440 	-1.13260 	-0.92110 	-0.93915 	-0.89925 	-1.07780 	-1.02025 
-0.37080 	-0.14400 	0.17530 	0.18655 	-0.10290 	-0.30825 	0.20535 	0.22460 	0.09980 	-0.42405 	0.41445 	0.17950 	-0.08475 	-0.44995 	0.14255 	0.06240 	0.01520 	-1.67590 	-0.19365 	-0.17070 	-0.46755 	-1.24205 	-1.01090 	-1.02870 	-0.99135 	-1.19475 	-1.13600 
-0.38730 	-0.12020 	0.20255 	0.24935 	-0.04470 	-0.39905 	0.24500 	0.36070 	0.08825 	-0.62145 	0.42855 	0.30225 	-0.13290 	-0.64085 	0.12745 	0.09080 	0.06750 	-1.73820 	-0.23485 	-0.19795 	-0.48055 	-1.31995 	-1.07370 	-1.09065 	-1.05035 	-1.27985 	-1.21740 
-0.40605 	-0.11270 	0.21400 	0.29515 	0.00185 	-0.48715 	0.26860 	0.47630 	0.06915 	-0.80840 	0.43035 	0.40565 	-0.17565 	-0.81150 	0.11085 	0.11740 	0.11845 	-1.77240 	-0.26810 	-0.21790 	-0.48195 	-1.37245 	-1.11610 	-1.13175 	-1.08305 	-1.33890 	-1.26920 
-0.43230 	-0.12805 	0.20360 	0.31755 	0.03120 	-0.57365 	0.26950 	0.56260 	0.03835 	-0.98520 	0.41330 	0.48030 	-0.21730 	-0.96250 	0.08630 	0.13440 	0.16005 	-1.78215 	-0.29930 	-0.23690 	-0.47810 	-1.40425 	-1.14330 	-1.15740 	-1.09480 	-1.37630 	-1.29545 
-0.46930 	-0.16940 	0.16855 	0.31340 	0.04045 	-0.65850 	0.24450 	0.61400 	-0.00565 	-1.15060 	0.37395 	0.52040 	-0.26035 	-1.09335 	0.04980 	0.13650 	0.18685 	-1.76930 	-0.33240 	-0.25925 	-0.47380 	-1.41900 	-1.15900 	-1.17130 	-1.08960 	-1.39565 	-1.29920 
-0.51840 	-0.23690 	0.10870 	0.28235 	0.02915 	-0.74060 	0.19315 	0.62855 	-0.06230 	-1.30270 	0.31185 	0.52365 	-0.30600 	-1.20305 	-0.00035 	0.12090 	0.19600 	-1.73365 	-0.36935 	-0.28710 	-0.47180 	-1.41880 	-1.16570 	-1.17615 	-1.07035 	-1.39930 	-1.28295 
-0.57925 	-0.32785 	0.02650 	0.22660 	-0.00105 	-0.81860 	0.11785 	0.60740 	-0.12940 	-1.43870 	0.22900 	0.49095 	-0.35435 	-1.29025 	-0.06365 	0.08715 	0.18665 	-1.67410 	-0.41070 	-0.32110 	-0.47340 	-1.40510 	-1.16500 	-1.17350 	-1.03920 	-1.38905 	-1.24895 
-0.64995 	-0.43740 	-0.07385 	0.15030 	-0.04700 	-0.89080 	0.02315 	0.55425 	-0.20380 	-1.55590 	0.12935 	0.42585 	-0.40470 	-1.35380 	-0.13790 	0.03675 	0.15940 	-1.58900 	-0.45545 	-0.36045 	-0.47890 	-1.37895 	-1.15775 	-1.16415 	-0.99765 	-1.36640 	-1.19925 
-0.72725 	-0.55895 	-0.18645 	0.05915 	-0.10415 	-0.95535 	-0.08490 	0.47480 	-0.28145 	-1.65155 	0.01845 	0.33420 	-0.45555 	-1.39280 	-0.21980 	-0.02750 	0.11640 	-1.47765 	-0.50195 	-0.40350 	-0.48770 	-1.34095 	-1.14445 	-1.14860 	-0.94690 	-1.33230 	-1.13575 
-0.80745 	-0.68500 	-0.30485 	-0.04055 	-0.16755 	-1.01040 	-0.19950 	0.37615 	-0.35845 	-1.72345 	-0.09765 	0.22285 	-0.50490 	-1.40700 	-0.30525 	-0.10160 	0.06015 	-1.33990 	-0.54800 	-0.44805 	-0.49895 	-1.29190 	-1.12535 	-1.12720 	-0.88820 	-1.28815 	-1.06045 
-0.88620 	-0.80790 	-0.42250 	-0.14235 	-0.23205 	-1.05440 	-0.31360 	0.26580 	-0.43090 	-1.77040 	-0.21260 	0.09955 	-0.55095 	-1.39680 	-0.39000 	-0.18135 	-0.00620 	-1.17730 	-0.59135 	-0.49155 	-0.51145 	-1.23295 	-1.10085 	-1.10015 	-0.82265 	-1.23515 	-0.97560 
-0.95930 	-0.92040 	-0.53315 	-0.24020 	-0.29325 	-1.08630 	-0.42065 	0.15130 	-0.49545 	-1.79190 	-0.32075 	-0.02825 	-0.59175 	-1.36320 	-0.47010 	-0.26235 	-0.07950 	-0.99265 	-0.62985 	-0.53200 	-0.52425 	-1.16570 	-1.07140 	-1.06795 	-0.75155 	-1.17500 	-0.88355 
-1.02325 	-1.01675 	-0.63180 	-0.32945 	-0.34795 	-1.10570 	-0.51550 	0.03900 	-0.54985 	-1.78875 	-0.41750 	-0.15420 	-0.62600 	-1.30840 	-0.54235 	-0.34115 	-0.15710 	-0.78980 	-0.66200 	-0.56770 	-0.53655 	-1.09210 	-1.03785 	-1.03125 	-0.67665 	-1.10960 	-0.78710 
-1.07515 	-1.09270 	-0.71480 	-0.40695 	-0.39420 	-1.11290 	-0.59475 	-0.06615 	-0.59295 	-1.76245 	-0.49985 	-0.27330 	-0.65330 	-1.23515 	-0.60480 	-0.41510 	-0.23685 	-0.57355 	-0.68720 	-0.59785 	-0.54810 	-1.01445 	-1.00120 	-0.99130 	-0.59975 	-1.04115 	-0.68925 
-1.11330 	-1.14635 	-0.78040 	-0.47115 	-0.43165 	-1.10895 	-0.65680 	-0.16135 	-0.62500 	-1.71580 	-0.56660 	-0.38245 	-0.67410 	-1.14700 	-0.65665 	-0.48300 	-0.31765 	-0.34915 	-0.70565 	-0.62255 	-0.55945 	-0.93535 	-0.96310 	-0.94950 	-0.52315 	-0.97225 	-0.59320 
-1.13720 	-1.17765 	-0.82855 	-0.52230 	-0.46115 	-1.09570 	-0.70190 	-0.24560 	-0.64735 	-1.65225 	-0.61820 	-0.48050 	-0.68975 	-1.04785 	-0.69850 	-0.54470 	-0.39920 	-0.12215 	-0.71850 	-0.64275 	-0.57145 	-0.85760 	-0.92530 	-0.90775 	-0.44965 	-0.90570 	-0.50240 
-1.14705 	-1.18830 	-0.86050 	-0.56175 	-0.48435 	-1.07525 	-0.73195 	-0.31960 	-0.66250 	-1.57595 	-0.65660 	-0.56770 	-0.70210 	-0.94185 	-0.73195 	-0.60135 	-0.48190 	0.10175 	-0.72755 	-0.66030 	-0.58560 	-0.78385 	-0.88975 	-0.86805 	-0.38185 	-0.84420 	-0.42025 
-1.14405 	-1.18170 	-0.87865 	-0.59175 	-0.50340 	-1.04975 	-0.75005 	-0.38530 	-0.67360 	-1.49150 	-0.68475 	-0.64555 	-0.71340 	-0.83350 	-0.75955 	-0.65460 	-0.56635 	0.31655 	-0.73500 	-0.67715 	-0.60315 	-0.71660 	-0.85855 	-0.83245 	-0.32235 	-0.79045 	-0.34990 
-1.12970 	-1.16165 	-0.88595 	-0.61460 	-0.52035 	-1.02130 	-0.75965 	-0.44510 	-0.68385 	-1.40375 	-0.70630 	-0.71610 	-0.72585 	-0.72720 	-0.78400 	-0.70640 	-0.65320 	0.51645 	-0.74310 	-0.69540 	-0.62545 	-0.65780 	-0.83325 	-0.80265 	-0.27325 	-0.74665 	-0.29400 
-1.10595 	-1.13285 	-0.88555 	-0.63290 	-0.53715 	-0.99195 	-0.76480 	-0.50165 	-0.69630 	-1.31760 	-0.72495 	-0.78170 	-0.74135 	-0.62770 	-0.80830 	-0.75875 	-0.74255 	0.69540 	-0.75405 	-0.71680 	-0.65305 	-0.60875 	-0.81500 	-0.78000 	-0.23585 	-0.71445 	-0.25430 
-1.07460 	-1.09965 	-0.88075 	-0.64890 	-0.55535 	-0.96355 	-0.76905 	-0.55730 	-0.71360 	-1.23725 	-0.74450 	-0.84445 	-0.76135 	-0.53945 	-0.83515 	-0.81335 	-0.83410 	0.84800 	-0.76950 	-0.74285 	-0.68610 	-0.57005 	-0.80460 	-0.76505 	-0.21070 	-0.69470 	-0.23155 
-1.03770 	-1.06645 	-0.87470 	-0.66460 	-0.57620 	-0.93780 	-0.77595 	-0.61420 	-0.73750 	-1.16605 	-0.76820 	-0.90640 	-0.78665 	-0.46700 	-0.86710 	-0.87150 	-0.92715 	0.96965 	-0.79080 	-0.77445 	-0.72430 	-0.54180 	-0.80185 	-0.75780 	-0.19750 	-0.68745 	-0.22535 
-0.99720 	-1.03720 	-0.87020 	-0.68205 	-0.60070 	-0.91615 	-0.78860 	-0.67415 	-0.76945 	-1.10635 	-0.79920 	-0.96925 	-0.81790 	-0.41440 	-0.90630 	-0.93430 	-1.02085 	1.05660 	-0.81900 	-0.81230 	-0.76700 	-0.52340 	-0.80645 	-0.75800 	-0.19535 	-0.69195 	-0.23420 
-0.95515 	-1.01515 	-0.87000 	-0.70300 	-0.62955 	-0.89980 	-0.80980 	-0.73880 	-0.81035 	-1.05940 	-0.84025 	-1.03465 	-0.85525 	-0.38510 	-0.95485 	-1.00260 	-1.11450 	1.10630 	-0.85495 	-0.85690 	-0.81345 	-0.51440 	-0.81770 	-0.76475 	-0.20295 	-0.70710 	-0.25615 
-0.91365 	-1.00280 	-0.87665 	-0.72910 	-0.66290 	-0.88950 	-0.84180 	-0.80960 	-0.86040 	-1.02555 	-0.89360 	-1.10395 	-0.89895 	-0.38175 	-1.01425 	-1.07720 	-1.20760 	1.11745 	-0.89935 	-0.90860 	-0.86315 	-0.51430 	-0.83485 	-0.77750 	-0.21910 	-0.73160 	-0.28900 
-0.87460 	-1.00175 	-0.89210 	-0.76165 	-0.70070 	-0.88570 	-0.88645 	-0.88770 	-0.91965 	-1.00420 	-0.96115 	-1.17855 	-0.94915 	-0.40605 	-1.08595 	-1.15875 	-1.30005 	1.08980 	-0.95280 	-0.96780 	-0.91580 	-0.52255 	-0.85755 	-0.79570 	-0.24270 	-0.76420 	-0.33070 
-0.83970 	-1.01245 	-0.91780 	-0.80145 	-0.74260 	-0.88850 	-0.94480 	-0.97380 	-0.98710 	-0.99445 	-1.04420 	-1.25935 	-1.00590 	-0.45840 	-1.17070 	-1.24785 	-1.39180 	1.02455 	-1.01565 	-1.03460 	-0.97110 	-0.53885 	-0.88525 	-0.81875 	-0.27270 	-0.80380 	-0.37950 
-0.81025 	-1.03425 	-0.95460 	-0.84880 	-0.78790 	-0.89795 	-1.01735 	-1.06805 	-1.06095 	-0.99490 	-1.14330 	-1.34680 	-1.06895 	-0.53810 	-1.26895 	-1.34450 	-1.48265 	0.92440 	-1.08790 	-1.10910 	-1.02890 	-0.56255 	-0.91760 	-0.84610 	-0.30810 	-0.84935 	-0.43390 
-0.78705 	-1.06540 	-1.00235 	-0.90340 	-0.83585 	-0.91375 	-1.10360 	-1.16985 	-1.13875 	-1.00420 	-1.25805 	-1.44105 	-1.13795 	-0.64345 	-1.38010 	-1.44840 	-1.57220 	0.79295 	-1.16915 	-1.19065 	-1.08865 	-0.59285 	-0.95410 	-0.87715 	-0.34770 	-0.89975 	-0.49265 
-0.77055 	-1.10370 	-1.06075 	-0.96460 	-0.88570 	-0.93570 	-1.20255 	-1.27835 	-1.21760 	-1.02120 	-1.38750 	-1.54150 	-1.21215 	-0.77180 	-1.50320 	-1.55875 	-1.66005 	0.63555 	-1.25850 	-1.27845 	-1.14975 	-0.62850 	-0.99410 	-0.91095 	-0.39030 	-0.95370 	-0.55420 
-0.76080 	-1.14645 	-1.12880 	-1.03165 	-0.93710 	-0.96350 	-1.31280 	-1.39230 	-1.29460 	-1.04505 	-1.53010 	-1.64770 	-1.29065 	-0.91965 	-1.63675 	-1.67455 	-1.74565 	0.45805 	-1.35475 	-1.37130 	-1.21135 	-0.66790 	-1.03670 	-0.94645 	-0.43435 	-1.00985 	-0.61700 
-0.75780 	-1.19120 	-1.20570 	-1.10375 	-0.99020 	-0.99715 	-1.43280 	-1.51030 	-1.36760 	-1.07530 	-1.68400 	-1.75885 	-1.37240 	-1.08255 	-1.77890 	-1.79445 	-1.82845 	0.26760 	-1.45650 	-1.46780 	-1.27260 	-0.70920 	-1.08105 	-0.98265 	-0.47840 	-1.06680 	-0.67950 
-0.76140 	-1.23615 	-1.29050 	-1.18070 	-1.04585 	-1.03625 	-1.56100 	-1.63125 	-1.43535 	-1.11185 	-1.84720 	-1.87420 	-1.45630 	-1.25515 	-1.92775 	-1.91740 	-1.90860 	0.07185 	-1.56210 	-1.56650 	-1.33265 	-0.75050 	-1.12625 	-1.01835 	-0.52120 	-1.12330 	-0.73995 
-0.77170 	-1.28025 	-1.38280 	-1.26230 	-1.10545 	-1.08055 	-1.69635 	-1.75420 	-1.49805 	-1.15445 	-2.01780 	-1.99320 	-1.54150 	-1.43145 	-2.08120 	-2.04220 	-1.98615 	-0.12110 	-1.67015 	-1.66605 	-1.39085 	-0.78995 	-1.17140 	-1.05270 	-0.56150 	-1.17795 	-0.79670 
-0.78890 	-1.32330 	-1.48225 	-1.34910 	-1.17090 	-1.12960 	-1.83780 	-1.87870 	-1.55695 	-1.20310 	-2.19400 	-2.11570 	-1.62755 	-1.60485 	-2.23765 	-2.16810 	-2.06175 	-0.30320 	-1.77915 	-1.76520 	-1.44665 	-0.82590 	-1.21575 	-1.08470 	-0.59830 	-1.22960 	-0.84810 
-0.81335 	-1.36635 	-1.58915 	-1.44180 	-1.24395 	-1.18315 	-1.98505 	-2.00490 	-1.61440 	-1.25720 	-2.37445 	-2.24160 	-1.71465 	-1.76850 	-2.39545 	-2.29450 	-2.13620 	-0.46695 	-1.88795 	-1.86310 	-1.49995 	-0.85690 	-1.25855 	-1.11385 	-0.63085 	-1.27725 	-0.89275 
-0.84550 	-1.41125 	-1.70390 	-1.54135 	-1.32630 	-1.24115 	-2.13790 	-2.13340 	-1.67315 	-1.31650 	-2.55825 	-2.37130 	-1.80360 	-1.91585 	-2.55350 	-2.42130 	-2.21055 	-0.60595 	-1.99560 	-1.95920 	-1.55075 	-0.88190 	-1.29930 	-1.13960 	-0.65870 	-1.32005 	-0.92985 
-0.88615 	-1.46070 	-1.82745 	-1.64895 	-1.41905 	-1.30390 	-2.29675 	-2.26510 	-1.73600 	-1.38065 	-2.74470 	-2.50545 	-1.89570 	-2.04160 	-2.71100 	-2.54865 	-2.28570 	-0.71550 	-2.10155 	-2.05310 	-1.59925 	-0.90030 	-1.33775 	-1.16200 	-0.68175 	-1.35745 	-0.95885 
-0.93600 	-1.51800 	-1.96080 	-1.76560 	-1.52300 	-1.37195 	-2.46220 	-2.40110 	-1.80575 	-1.44900 	-2.93370 	-2.64455 	-1.99235 	-2.14185 	-2.86750 	-2.67670 	-2.36205 	-0.79300 	-2.20540 	-2.14475 	-1.64580 	-0.91180 	-1.37370 	-1.18110 	-0.70010 	-1.38935 	-0.97975 
-0.99585 	-1.58660 	-2.10510 	-1.89205 	-1.63815 	-1.44590 	-2.63490 	-2.54250 	-1.88490 	-1.52155 	-3.12510 	-2.78895 	-2.09525 	-2.21480 	-3.02270 	-2.80575 	-2.43975 	-0.83850 	-2.30695 	-2.23425 	-1.69050 	-0.91645 	-1.40720 	-1.19715 	-0.71425 	-1.41570 	-0.99305 
-1.06625 	-1.66960 	-2.26115 	-2.02880 	-1.76445 	-1.52630 	-2.81555 	-2.69010 	-1.97550 	-1.59840 	-3.31905 	-2.93885 	-2.20565 	-2.26100 	-3.17635 	-2.93550 	-2.51825 	-0.85400 	-2.40610 	-2.32150 	-1.73325 	-0.91465 	-1.43810 	-1.21055 	-0.72455 	-1.43670 	-0.99930 
-1.14745 	-1.76975 	-2.42960 	-2.17640 	-1.90165 	-1.61350 	-3.00455 	-2.84485 	-2.07895 	-1.68000 	-3.51525 	-3.09385 	-2.32440 	-2.28255 	-3.32800 	-3.06560 	-2.59670 	-0.84360 	-2.50255 	-2.40640 	-1.77370 	-0.90695 	-1.46645 	-1.22160 	-0.73155 	-1.45270 	-0.99945 
-1.23960 	-1.88890 	-2.61065 	-2.33465 	-2.04915 	-1.70795 	-3.20195 	-3.00715 	-2.19585 	-1.76745 	-3.71350 	-3.25365 	-2.45185 	-2.28340 	-3.47730 	-3.19540 	-2.67390 	-0.81260 	-2.59615 	-2.48870 	-1.81155 	-0.89430 	-1.49230 	-1.23065 	-0.73580 	-1.46420 	-0.99450 
-1.34240 	-2.02810 	-2.80415 	-2.50370 	-2.20645 	-1.80965 	-3.40760 	-3.17740 	-2.32575 	-1.86135 	-3.91335 	-3.41745 	-2.58770 	-2.26845 	-3.62375 	-3.32410 	-2.74895 	-0.76700 	-2.68680 	-2.56835 	-1.84665 	-0.87805 	-1.51575 	-1.23830 	-0.73815 	-1.47185 	-0.98550 
-1.45540 	-2.18695 	-3.00935 	-2.68300 	-2.37250 	-1.91840 	-3.62105 	-3.35550 	-2.46755 	-1.96180 	-4.11415 	-3.58465 	-2.73125 	-2.24265 	-3.76705 	-3.45110 	-2.82120 	-0.71275 	-2.77455 	-2.64540 	-1.87915 	-0.85975 	-1.53730 	-1.24530 	-0.73950 	-1.47685 	-0.97390 
-1.57765 	-2.36425 	-3.22490 	-2.87180 	-2.54620 	-2.03320 	-3.84130 	-3.54105 	-2.61930 	-2.06805 	-4.31505 	-3.75435 	-2.88135 	-2.21070 	-3.90670 	-3.57590 	-2.89035 	-0.65515 	-2.85960 	-2.72000 	-1.90955 	-0.84105 	-1.55765 	-1.25255 	-0.74105 	-1.48030 	-0.96140 
-1.70765 	-2.55715 	-3.44910 	-3.06910 	-2.72575 	-2.15235 	-4.06695 	-3.73325 	-2.77880 	-2.17860 	-4.51485 	-3.92565 	-3.03635 	-2.17655 	-4.04220 	-3.69785 	-2.95640 	-0.59830 	-2.94185 	-2.79225 	-1.93850 	-0.82345 	-1.57725 	-1.26085 	-0.74390 	-1.48335 	-0.94935 
-1.84340 	-2.76175 	-3.67945 	-3.27310 	-2.90900 	-2.27345 	-4.29615 	-3.93090 	-2.94340 	-2.29135 	-4.71205 	-4.09725 	-3.19435 	-2.14315 	-4.17270 	-3.81630 	-3.01965 	-0.54510 	-3.02105 	-2.86195 	-1.96655 	-0.80800 	-1.59665 	-1.27080 	-0.74875 	-1.48670 	-0.93875 
-1.98230 	-2.97310 	-3.91300 	-3.48155 	-3.09355 	-2.39390 	-4.52660 	-4.13215 	-3.11055 	-2.40415 	-4.90475 	-4.26775 	-3.35320 	-2.11265 	-4.29715 	-3.93045 	-3.08040 	-0.49690 	-3.09665 	-2.92865 	-1.99405 	-0.79505 	-1.61565 	-1.28245 	-0.75575 	-1.49065 	-0.92980 
-2.12145 	-3.18560 	-4.14640 	-3.69170 	-3.27685 	-2.51135 	-4.75540 	-4.33475 	-3.27770 	-2.51475 	-5.09085 	-4.43540 	-3.51040 	-2.08650 	-4.41415 	-4.03905 	-3.13890 	-0.45380 	-3.16770 	-2.99155 	-2.02085 	-0.78460 	-1.63400 	-1.29530 	-0.76455 	-1.49480 	-0.92200 
-2.25790 	-3.39335 	-4.37630 	-3.90065 	-3.45620 	-2.62375 	-4.97965 	-4.53610 	-3.44235 	-2.62135 	-5.26800 	-4.59830 	-3.66380 	-2.06530 	-4.52240 	-4.14100 	-3.19515 	-0.41490 	-3.23320 	-3.04965 	-2.04685 	-0.77590 	-1.65110 	-1.30870 	-0.77450 	-1.49840 	-0.91455 
-2.38875 	-3.59085 	-4.59935 	-4.10535 	-3.62935 	-2.72970 	-5.19650 	-4.73345 	-3.60200 	-2.72230 	-5.43415 	-4.75470 	-3.81135 	-2.04930 	-4.62035 	-4.23515 	-3.24910 	-0.37880 	-3.29210 	-3.10200 	-2.07160 	-0.76815 	-1.66630 	-1.32185 	-0.78465 	-1.50085 	-0.90650 
-2.51175 	-3.77350 	-4.81265 	-4.30285 	-3.79425 	-2.82840 	-5.40345 	-4.92430 	-3.75460 	-2.81670 	-5.58740 	-4.90290 	-3.95160 	-2.03825 	-4.70705 	-4.32070 	-3.30060 	-0.34395 	-3.34360 	-3.14795 	-2.09510 	-0.76060 	-1.67930 	-1.33415 	-0.79440 	-1.50155 	-0.89710 
-2.62500 	-3.93790 	-5.01395 	-4.49065 	-3.94945 	-2.91965 	-5.59840 	-5.10645 	-3.89845 	-2.90405 	-5.72655 	-5.04190 	-4.08370 	-2.03155 	-4.78165 	-4.39720 	-3.34940 	-0.30935 	-3.38740 	-3.18710 	-2.11745 	-0.75280 	-1.68995 	-1.34535 	-0.80350 	-1.50005 	-0.88620 
-2.72760 	-4.08200 	-5.20165 	-4.66690 	-4.09385 	-3.00375 	-5.78005 	-5.27830 	-4.03210 	-2.98460 	-5.85090 	-5.17085 	-4.20730 	-2.02880 	-4.84410 	-4.46465 	-3.39555 	-0.27485 	-3.42365 	-3.21960 	-2.13905 	-0.74485 	-1.69875 	-1.35545 	-0.81200 	-1.49650 	-0.87400 
-2.81900 	-4.20550 	-5.37490 	-4.83000 	-4.22680 	-3.08165 	-5.94735 	-5.43860 	-4.15475 	-3.05915 	-5.96020 	-5.28940 	-4.32265 	-2.02960 	-4.89460 	-4.52340 	-3.43880 	-0.24165 	-3.45270 	-3.24575 	-2.16050 	-0.73745 	-1.70620 	-1.36500 	-0.82040 	-1.49145 	-0.86095 
-2.89925 	-4.30890 	-5.53310 	-4.97880 	-4.34815 	-3.15450 	-6.09975 	-5.58610 	-4.26605 	-3.12895 	-6.05435 	-5.39720 	-4.43005 	-2.03380 	-4.93350 	-4.57385 	-3.47950 	-0.21185 	-3.47515 	-3.26605 	-2.18245 	-0.73165 	-1.71300 	-1.37440 	-0.82930 	-1.48525 	-0.84785 
-2.96840 	-4.39385 	-5.67585 	-5.11255 	-4.45825 	-3.22345 	-6.23675 	-5.72000 	-4.36605 	-3.19500 	-6.13335 	-5.49375 	-4.52980 	-2.04145 	-4.96120 	-4.61625 	-3.51750 	-0.18875 	-3.49150 	-3.28085 	-2.20515 	-0.72885 	-1.71970 	-1.38415 	-0.83945 	-1.47855 	-0.83530 
-3.02655 	-4.46215 	-5.80270 	-5.23055 	-4.55765 	-3.28950 	-6.35770 	-5.83920 	-4.45540 	-3.25830 	-6.19680 	-5.57840 	-4.62225 	-2.05270 	-4.97780 	-4.65055 	-3.55310 	-0.17620 	-3.50170 	-3.29030 	-2.22855 	-0.73020 	-1.72640 	-1.39435 	-0.85110 	-1.47155 	-0.82365 
-3.07345 	-4.51590 	-5.91310 	-5.33220 	-4.64700 	-3.35275 	-6.46170 	-5.94260 	-4.53500 	-3.31900 	-6.24415 	-5.65015 	-4.70740 	-2.06745 	-4.98310 	-4.67650 	-3.58665 	-0.17800 	-3.50555 	-3.29405 	-2.25250 	-0.73695 	-1.73285 	-1.40485 	-0.86440 	-1.46415 	-0.81290 
-3.10890 	-4.55695 	-6.00635 	-5.41715 	-4.72680 	-3.41315 	-6.54775 	-6.02940 	-4.60595 	-3.37670 	-6.27450 	-5.70820 	-4.78505 	-2.08570 	-4.97660 	-4.69375 	-3.61845 	-0.19770 	-3.50255 	-3.29160 	-2.27635 	-0.75000 	-1.73840 	-1.41515 	-0.87900 	-1.45590 	-0.80225 
-3.13245 	-4.58700 	-6.08180 	-5.48505 	-4.79740 	-3.46980 	-6.61505 	-6.09880 	-4.66905 	-3.43040 	-6.28695 	-5.75175 	-4.85475 	-2.10735 	-4.95775 	-4.70175 	-3.64910 	-0.23830 	-3.49185 	-3.28230 	-2.29945 	-0.77010 	-1.74210 	-1.42455 	-0.89435 	-1.44610 	-0.79080 
-3.14365 	-4.60720 	-6.13875 	-5.53575 	-4.85865 	-3.52165 	-6.66270 	-6.15040 	-4.72490 	-3.47915 	-6.28075 	-5.78030 	-4.91560 	-2.13265 	-4.92600 	-4.70005 	-3.67910 	-0.30215 	-3.47285 	-3.26550 	-2.32125 	-0.79765 	-1.74280 	-1.43225 	-0.90980 	-1.43360 	-0.77700 
-3.14240 	-4.61850 	-6.17700 	-5.56935 	-4.91000 	-3.56785 	-6.69035 	-6.18415 	-4.77355 	-3.52205 	-6.25515 	-5.79355 	-4.96685 	-2.16250 	-4.88080 	-4.68830 	-3.70875 	-0.39095 	-3.44470 	-3.24065 	-2.34140 	-0.83285 	-1.73950 	-1.43760 	-0.92470 	-1.41760 	-0.75970 
-3.12870 	-4.62125 	-6.19630 	-5.58620 	-4.95075 	-3.60800 	-6.69750 	-6.20025 	-4.81490 	-3.55920 	-6.20965 	-5.79120 	-5.00735 	-2.19845 	-4.82170 	-4.66625 	-3.73825 	-0.50555 	-3.40695 	-3.20730 	-2.35930 	-0.87565 	-1.73115 	-1.43995 	-0.93840 	-1.39725 	-0.73775 
-3.10280 	-4.61545 	-6.19675 	-5.58690 	-4.98005 	-3.64235 	-6.68435 	-6.19910 	-4.84875 	-3.59135 	-6.14410 	-5.77300 	-5.03635 	-2.24270 	-4.74840 	-4.63335 	-3.76740 	-0.64635 	-3.35900 	-3.16515 	-2.37475 	-0.92560 	-1.71710 	-1.43875 	-0.95035 	-1.37195 	-0.71060 
-3.06535 	-4.60065 	-6.17880 	-5.57230 	-4.99725 	-3.67135 	-6.65110 	-6.18130 	-4.87470 	-3.61985 	-6.05830 	-5.73880 	-5.05310 	-2.29730 	-4.66055 	-4.58930 	-3.79550 	-0.81255 	-3.30055 	-3.11390 	-2.38720 	-0.98190 	-1.69675 	-1.43355 	-0.96015 	-1.34145 	-0.67775 
-3.01695 	-4.57600 	-6.14290 	-5.54350 	-5.00190 	-3.69590 	-6.59825 	-6.14780 	-4.89270 	-3.64615 	-5.95260 	-5.68845 	-5.05725 	-2.36410 	-4.55795 	-4.53345 	-3.82160 	-1.00235 	-3.23105 	-3.05320 	-2.39615 	-1.04360 	-1.66950 	-1.42380 	-0.96705 	-1.30520 	-0.63920 
-2.95865 	-4.54050 	-6.08980 	-5.50165 	-4.99415 	-3.71660 	-6.52650 	-6.09955 	-4.90265 	-3.67165 	-5.82730 	-5.62210 	-5.04895 	-2.44435 	-4.44060 	-4.46550 	-3.84435 	-1.21270 	-3.15025 	-2.98275 	-2.40085 	-1.10960 	-1.63500 	-1.40885 	-0.97050 	-1.26300 	-0.59460 
-2.89130 	-4.49295 	-6.02040 	-5.44805 	-4.97450 	-3.73380 	-6.43675 	-6.03770 	-4.90460 	-3.69740 	-5.68320 	-5.54030 	-5.02845 	-2.53820 	-4.30845 	-4.38505 	-3.86235 	-1.43965 	-3.05800 	-2.90240 	-2.40075 	-1.17860 	-1.59305 	-1.38805 	-0.96980 	-1.21460 	-0.54400 
-2.81580 	-4.43235 	-5.93555 	-5.38370 	-4.94380 	-3.74745 	-6.33005 	-5.96355 	-4.89850 	-3.72380 	-5.52110 	-5.44385 	-4.99635 	-2.64495 	-4.16180 	-4.29215 	-3.87410 	-1.67835 	-2.95415 	-2.81195 	-2.39500 	-1.24930 	-1.54355 	-1.36085 	-0.96440 	-1.15980 	-0.48745 
-2.73305 	-4.35770 	-5.83610 	-5.30955 	-4.90285 	-3.75700 	-6.20725 	-5.87800 	-4.88395 	-3.75070 	-5.34200 	-5.33365 	-4.95315 	-2.76280 	-4.00090 	-4.18675 	-3.87820 	-1.92380 	-2.83865 	-2.71135 	-2.38315 	-1.32060 	-1.48655 	-1.32685 	-0.95390 	-1.09860 	-0.42530 
-2.64390 	-4.26850 	-5.72300 	-5.22610 	-4.85240 	-3.76205 	-6.06925 	-5.78180 	-4.86020 	-3.77735 	-5.14670 	-5.21045 	-4.89910 	-2.88940 	-3.82605 	-4.06900 	-3.87360 	-2.17085 	-2.71170 	-2.60045 	-2.36455 	-1.39120 	-1.42230 	-1.28575 	-0.93820 	-1.03120 	-0.35785 
-2.54920 	-4.16465 	-5.59695 	-5.13370 	-4.79305 	-3.76225 	-5.91675 	-5.67515 	-4.82660 	-3.80310 	-4.93605 	-5.07490 	-4.83450 	-3.02225 	-3.63760 	-3.93890 	-3.85910 	-2.41480 	-2.57315 	-2.47905 	-2.33860 	-1.45995 	-1.35100 	-1.23740 	-0.91750 	-0.95770 	-0.28565 
-2.45000 	-4.04695 	-5.45890 	-5.03275 	-4.72560 	-3.75780 	-5.75040 	-5.55785 	-4.78250 	-3.82705 	-4.71065 	-4.92735 	-4.75915 	-3.15825 	-3.43570 	-3.79665 	-3.83380 	-2.65110 	-2.42320 	-2.34710 	-2.30465 	-1.52580 	-1.27285 	-1.18165 	-0.89175 	-0.87820 	-0.20910 
-2.34755 	-3.91700 	-5.30980 	-4.92350 	-4.65090 	-3.74920 	-5.57065 	-5.42935 	-4.72775 	-3.84835 	-4.47135 	-4.76775 	-4.67325 	-3.29455 	-3.22075 	-3.64215 	-3.79735 	-2.87595 	-2.26185 	-2.20450 	-2.26220 	-1.58770 	-1.18790 	-1.11860 	-0.86135 	-0.79280 	-0.12850 
-2.24330 	-3.77720 	-5.15075 	-4.80655 	-4.57020 	-3.73725 	-5.37825 	-5.28920 	-4.66275 	-3.86640 	-4.21875 	-4.59615 	-4.57680 	-3.42820 	-2.99305 	-3.47545 	-3.74930 	-3.08595 	-2.08950 	-2.05145 	-2.21065 	-1.64495 	-1.09645 	-1.04830 	-0.82650 	-0.70185 	-0.04435 
-2.13885 	-3.63045 	-4.98305 	-4.68270 	-4.48540 	-3.72270 	-5.17390 	-5.13695 	-4.58835 	-3.88045 	-3.95380 	-4.41255 	-4.47005 	-3.55640 	-2.75325 	-3.29680 	-3.68995 	-3.27835 	-1.90640 	-1.88820 	-2.14995 	-1.69695 	-0.99865 	-0.97105 	-0.78750 	-0.60545 	0.04330 
-2.03565 	-3.48005 	-4.80790 	-4.55285 	-4.39870 	-3.70610 	-4.95855 	-4.97270 	-4.50570 	-3.88980 	-3.67735 	-4.21730 	-4.35355 	-3.67645 	-2.50205 	-3.10655 	-3.61955 	-3.45145 	-1.71330 	-1.71520 	-2.08020 	-1.74335 	-0.89460 	-0.88705 	-0.74445 	-0.50375 	0.13405 
-1.93510 	-3.32950 	-4.62655 	-4.41810 	-4.31225 	-3.68775 	-4.73310 	-4.79660 	-4.41610 	-3.89380 	-3.39060 	-4.01095 	-4.22800 	-3.78600 	-2.24025 	-2.90540 	-3.53885 	-3.60435 	-1.51090 	-1.53315 	-2.00160 	-1.78390 	-0.78455 	-0.79660 	-0.69735 	-0.39705 	0.22795 
-1.83795 	-3.18165 	-4.44000 	-4.27920 	-4.22795 	-3.66760 	-4.49850 	-4.60915 	-4.32065 	-3.89175 	-3.09440 	-3.79435 	-4.09425 	-3.88285 	-1.96880 	-2.69405 	-3.44860 	-3.73655 	-1.29985 	-1.34265 	-1.91455 	-1.81825 	-0.66840 	-0.69985 	-0.64610 	-0.28540 	0.32460 
-1.74490 	-3.03905 	-4.24890 	-4.13700 	-4.14685 	-3.64515 	-4.25555 	-4.41105 	-4.22020 	-3.88285 	-2.78970 	-3.56855 	-3.95295 	-3.96530 	-1.68865 	-2.47340 	-3.34975 	-3.84815 	-1.08100 	-1.14435 	-1.81940 	-1.84585 	-0.54620 	-0.59700 	-0.59030 	-0.16905 	0.42375 
-1.65615 	-2.90345 	-4.05370 	-3.99160 	-4.06910 	-3.61960 	-4.00485 	-4.20290 	-4.11520 	-3.86635 	-2.47740 	-3.33455 	-3.80490 	-4.03195 	-1.40085 	-2.24425 	-3.24325 	-3.93925 	-0.85510 	-0.93880 	-1.71665 	-1.86620 	-0.41795 	-0.48805 	-0.52960 	-0.04830 	0.52505 
-1.57190 	-2.77570 	-3.85470 	-3.84320 	-3.99405 	-3.58990 	-3.74705 	-3.98545 	-4.00610 	-3.84130 	-2.15825 	-3.09365 	-3.65065 	-4.08190 	-1.10630 	-2.00770 	-3.13015 	-4.01035 	-0.62305 	-0.72670 	-1.60655 	-1.87865 	-0.28365 	-0.37325 	-0.46370 	0.07635 	0.62815 
-1.49220 	-2.65615 	-3.65210 	-3.69165 	-3.92020 	-3.55500 	-3.48280 	-3.75975 	-3.89325 	-3.80710 	-1.83320 	-2.84730 	-3.49090 	-4.11505 	-0.80645 	-1.76490 	-3.01185 	-4.06195 	-0.38590 	-0.50900 	-1.49010 	-1.88280 	-0.14360 	-0.25305 	-0.39275 	0.20435 	0.73255 
-1.41735 	-2.54440 	-3.44620 	-3.53705 	-3.84625 	-3.51410 	-3.21275 	-3.52700 	-3.77705 	-3.76325 	-1.50335 	-2.59700 	-3.32660 	-4.13190 	-0.50275 	-1.51725 	-2.88995 	-4.09495 	-0.14490 	-0.28680 	-1.36835 	-1.87885 	0.00155 	-0.12820 	-0.31715 	0.33460 	0.83760 
-1.34770 	-2.43940 	-3.23730 	-3.37940 	-3.77075 	-3.46665 	-2.93790 	-3.28850 	-3.65780 	-3.70980 	-1.16990 	-2.34415 	-3.15860 	-4.13390 	-0.19660 	-1.26635 	-2.76585 	-4.11050 	0.09845 	-0.06150 	-1.24285 	-1.86715 	0.15090 	0.00005 	-0.23775 	0.46600 	0.94240 
-1.28350 	-2.33960 	-3.02560 	-3.21865 	-3.69245 	-3.41270 	-2.65875 	-3.04565 	-3.53550 	-3.64730 	-0.83390 	-2.09010 	-2.98775 	-4.12300 	0.11040 	-1.01370 	-2.64115 	-4.11015 	0.34295 	0.16545 	-1.11515 	-1.84865 	0.30335 	0.13065 	-0.15580 	0.59740 	1.04615 
-1.22470 	-2.24270 	-2.81105 	-3.05460 	-3.61025 	-3.35255 	-2.37580 	-2.79940 	-3.40980 	-3.57670 	-0.49610 	-1.83565 	-2.81455 	-4.10150 	0.41720 	-0.76040 	-2.51675 	-4.09500 	0.58750 	0.39290 	-0.98680 	-1.82430 	0.45780 	0.26240 	-0.07230 	0.72785 	1.14815 
-1.17105 	-2.14595 	-2.59340 	-2.88680 	-3.52295 	-3.28655 	-2.08910 	-2.55045 	-3.28000 	-3.49915 	-0.15705 	-1.58125 	-2.63915 	-4.07180 	0.72290 	-0.50715 	-2.39305 	-4.06640 	0.83130 	0.62005 	-0.85900 	-1.79495 	0.61320 	0.39425 	0.01155 	0.85650 	1.24775 
-1.12185 	-2.04635 	-2.37205 	-2.71435 	-3.42940 	-3.21520 	-1.79825 	-2.29890 	-3.14510 	-3.41605 	0.18310 	-1.32655 	-2.46145 	-4.03575 	1.02720 	-0.25430 	-2.26985 	-4.02475 	1.07400 	0.84610 	-0.73235 	-1.76135 	0.76880 	0.52540 	0.09485 	0.98280 	1.34445 
-1.07605 	-1.94105 	-2.14605 	-2.53610 	-3.32825 	-3.13885 	-1.50250 	-2.04430 	-3.00380 	-3.32880 	0.52455 	-1.07085 	-2.28105 	-3.99485 	1.33005 	-0.00175 	-2.14645 	-3.97030 	1.31545 	1.07070 	-0.60735 	-1.72415 	0.92365 	0.65515 	0.17680 	1.10615 	1.43770 
-1.03265 	-1.82750 	-1.91460 	-2.35085 	-3.21800 	-3.05800 	-1.20115 	-1.78600 	-2.85485 	-3.23900 	0.86745 	-0.81335 	-2.09780 	-3.94985 	1.63140 	0.25085 	-2.02200 	-3.90300 	1.55565 	1.29355 	-0.48390 	-1.68380 	1.07715 	0.78285 	0.25675 	1.22610 	1.52695 
-0.99060 	-1.70405 	-1.67690 	-2.15730 	-3.09710 	-2.97290 	-0.89340 	-1.52310 	-2.69715 	-3.14785 	1.21195 	-0.55330 	-1.91185 	-3.90095 	1.93135 	0.50385 	-1.89545 	-3.82260 	1.79460 	1.51450 	-0.36170 	-1.64080 	1.22855 	0.90805 	0.33410 	1.34220 	1.61160 
-0.94895 	-1.56975 	-1.43240 	-1.95460 	-2.96440 	-2.88410 	-0.57875 	-1.25490 	-2.52995 	-3.05665 	1.55800 	-0.29015 	-1.72395 	-3.84785 	2.22985 	0.75735 	-1.76585 	-3.72920 	2.03210 	1.73320 	-0.24025 	-1.59535 	1.37725 	1.03030 	0.40850 	1.45425 	1.69120 
-0.90705 	-1.42480 	-1.18090 	-1.74245 	-2.81905 	-2.79215 	-0.25695 	-0.98100 	-2.35295 	-2.96600 	1.90530 	-0.02385 	-1.53510 	-3.78985 	2.52680 	1.01155 	-1.63255 	-3.62320 	2.26815 	1.94945 	-0.11900 	-1.54760 	1.52270 	1.14925 	0.47975 	1.56210 	1.76570 
-0.86445 	-1.27040 	-0.92270 	-1.52100 	-2.66100 	-2.69745 	0.07160 	-0.70165 	-2.16625 	-2.87615 	2.25315 	0.24505 	-1.34690 	-3.72645 	2.82190 	1.26615 	-1.49515 	-3.50550 	2.50230 	2.16285 	0.00260 	-1.49765 	1.66455 	1.26470 	0.54795 	1.66565 	1.83500 
-0.82110 	-1.10875 	-0.65840 	-1.29125 	-2.49110 	-2.60065 	0.40610 	-0.41770 	-1.97085 	-2.78725 	2.60070 	0.51575 	-1.16100 	-3.65735 	3.11465 	1.52085 	-1.35360 	-3.37740 	2.73420 	2.37310 	0.12505 	-1.44555 	1.80270 	1.37660 	0.61325 	1.76505 	1.89935 
-0.77710 	-0.94255 	-0.38915 	-1.05450 	-2.31100 	-2.50210 	0.74535 	-0.13035 	-1.76805 	-2.69895 	2.94670 	0.78720 	-0.97915 	-3.58280 	3.40450 	1.77525 	-1.20810 	-3.24050 	2.96340 	2.57980 	0.24865 	-1.39135 	1.93700 	1.48505 	0.67600 	1.86050 	1.95920 
-0.73275 	-0.77520 	-0.11620 	-0.81265 	-2.12285 	-2.40230 	1.08780 	0.15865 	-1.55980 	-2.61090 	3.29000 	1.05815 	-0.80275 	-3.50315 	3.69080 	2.02865 	-1.05915 	-3.09620 	3.18940 	2.78275 	0.37355 	-1.33505 	2.06770 	1.59035 	0.73675 	1.95240 	2.01495 
-0.68830 	-0.60985 	0.15890 	-0.56740 	-1.92915 	-2.30160 	1.43185 	0.44770 	-1.34825 	-2.52260 	3.62950 	1.32790 	-0.63280 	-3.41885 	3.97280 	2.28075 	-0.90735 	-2.94555 	3.41175 	2.98165 	0.49985 	-1.27655 	2.19515 	1.69285 	0.79600 	2.04105 	2.06710 
-0.64430 	-0.44970 	0.43490 	-0.32060 	-1.73255 	-2.20030 	1.77580 	0.73530 	-1.13585 	-2.43345 	3.96420 	1.59575 	-0.46935 	-3.33010 	4.25005 	2.53095 	-0.75325 	-2.78895 	3.63020 	3.17650 	0.62755 	-1.21590 	2.31995 	1.79310 	0.85450 	2.12680 	2.11590 
-0.60120 	-0.29730 	0.71040 	-0.07370 	-1.53565 	-2.09845 	2.11830 	1.02050 	-0.92480 	-2.34280 	4.29340 	1.86145 	-0.31185 	-3.23630 	4.52200 	2.77900 	-0.59735 	-2.62625 	3.84460 	3.36745 	0.75685 	-1.15280 	2.44255 	1.89160 	0.91275 	2.21005 	2.16165 
-0.55920 	-0.15450 	0.98420 	0.17190 	-1.34100 	-1.99620 	2.45790 	1.30230 	-0.71745 	-2.25020 	4.61645 	2.12500 	-0.15915 	-3.13615 	4.78830 	3.02455 	-0.43980 	-2.45695 	4.05480 	3.55445 	0.88770 	-1.08705 	2.56360 	1.98890 	0.97140 	2.29105 	2.20415 
-0.51885 	-0.02225 	1.25525 	0.41480 	-1.15080 	-1.89375 	2.79330 	1.57995 	-0.51570 	-2.15525 	4.93290 	2.38640 	-0.00940 	-3.02810 	5.04850 	3.26735 	-0.28080 	-2.28045 	4.26080 	3.73785 	1.02020 	-1.01835 	2.68355 	2.08545 	1.03090 	2.36985 	2.24350 
-0.48040 	0.09920 	1.52230 	0.65365 	-0.96700 	-1.79105 	3.12330 	1.85270 	-0.32125 	-2.05750 	5.24215 	2.64535 	0.13925 	-2.91015 	5.30225 	3.50700 	-0.12000 	-2.09625 	4.46260 	3.91775 	1.15425 	-0.94620 	2.80265 	2.18160 	1.09190 	2.44645 	2.27930 
-0.44395 	0.21060 	1.78455 	0.88750 	-0.79080 	-1.68800 	3.44665 	2.11995 	-0.13490 	-1.95665 	5.54385 	2.90130 	0.28875 	-2.78050 	5.54925 	3.74295 	0.04275 	-1.90450 	4.66000 	4.09415 	1.28975 	-0.87010 	2.92115 	2.27760 	1.15480 	2.52075 	2.31120 
-0.40955 	0.31350 	2.04130 	1.11535 	-0.62255 	-1.58470 	3.76255 	2.38120 	0.04320 	-1.85200 	5.83740 	3.15360 	0.44080 	-2.63795 	5.78920 	3.97480 	0.20780 	-1.70560 	4.85310 	4.26730 	1.42655 	-0.78945 	3.03905 	2.37365 	1.22010 	2.59245 	2.33895 
-0.37710 	0.41015 	2.29205 	1.33690 	-0.46165 	-1.48105 	4.07015 	2.63610 	0.21390 	-1.74290 	6.12255 	3.40130 	0.59710 	-2.48175 	6.02185 	4.20200 	0.37545 	-1.50035 	5.04190 	4.43720 	1.56485 	-0.70360 	3.15640 	2.47000 	1.28825 	2.66140 	2.36215 
-0.34610 	0.50305 	2.53645 	1.55220 	-0.30665 	-1.37685 	4.36915 	2.88485 	0.37895 	-1.62840 	6.39895 	3.64360 	0.75890 	-2.31210 	6.24725 	4.42430 	0.54610 	-1.28960 	5.22660 	4.60425 	1.70480 	-0.61205 	3.27300 	2.56690 	1.35975 	2.72745 	2.38075 
-0.31625 	0.59495 	2.77440 	1.76145 	-0.15565 	-1.27235 	4.65930 	3.12765 	0.54040 	-1.50785 	6.66685 	3.87980 	0.92720 	-2.12980 	6.46565 	4.64175 	0.72015 	-1.07445 	5.40755 	4.76875 	1.84690 	-0.51435 	3.38880 	2.66460 	1.43505 	2.79050 	2.39465 
-0.28705 	0.68830 	3.00600 	1.96520 	-0.00625 	-1.16755 	4.94060 	3.36505 	0.70055 	-1.38060 	6.92635 	4.10950 	1.10275 	-1.93640 	6.67750 	4.85470 	0.89790 	-0.85590 	5.58520 	4.93140 	1.99195 	-0.41020 	3.50385 	2.76365 	1.51465 	2.85060 	2.40400 
-0.25820 	0.78510 	3.23110 	2.16425 	0.14400 	-1.06260 	5.21320 	3.59755 	0.86175 	-1.24635 	7.17785 	4.33250 	1.28590 	-1.73405 	6.88345 	5.06360 	1.07975 	-0.63510 	5.76025 	5.09285 	2.14065 	-0.29930 	3.61825 	2.86440 	1.59875 	2.90780 	2.40870 
-0.22950 	0.88665 	3.44985 	2.35910 	0.29705 	-0.95765 	5.47715 	3.82555 	1.02630 	-1.10530 	7.42170 	4.54870 	1.47700 	-1.52510 	7.08420 	5.26925 	1.26590 	-0.41315 	5.93330 	5.25380 	2.29400 	-0.18160 	3.73195 	2.96715 	1.68750 	2.96220 	2.40910 
-0.20085 	0.99320 	3.66195 	2.55025 	0.45420 	-0.85270 	5.73240 	4.04915 	1.19580 	-0.95835 	7.65810 	4.75840 	1.67610 	-1.31235 	7.28030 	5.47230 	1.45635 	-0.19160 	6.10480 	5.41490 	2.45245 	-0.05730 	3.84510 	3.07230 	1.78085 	3.01385 	2.40505 
-0.17245 	1.10410 	3.86695 	2.73760 	0.61595 	-0.74765 	5.97865 	4.26800 	1.37155 	-0.80715 	7.88695 	4.96175 	1.88295 	-1.09825 	7.47215 	5.67315 	1.65105 	0.02795 	6.27495 	5.57635 	2.61630 	0.07340 	3.95760 	3.17980 	1.87845 	3.06265 	2.39675 
-0.14470 	1.21790 	4.06415 	2.92085 	0.78180 	-0.64250 	6.21515 	4.48165 	1.55415 	-0.65370 	8.10800 	5.15895 	2.09690 	-0.88480 	7.65980 	5.87225 	1.84970 	0.24395 	6.44370 	5.73815 	2.78550 	0.21015 	4.06945 	3.28965 	1.97975 	3.10850 	2.38415 
-0.11795 	1.33210 	4.25270 	3.09930 	0.95060 	-0.53715 	6.44115 	4.68945 	1.74325 	-0.50005 	8.32070 	5.35030 	2.31705 	-0.67330 	7.84295 	6.06940 	2.05165 	0.45470 	6.61085 	5.89990 	2.95940 	0.35225 	4.18035 	3.40150 	2.08400 	3.15145 	2.36745 
-0.09280 	1.44375 	4.43145 	3.27195 	1.12100 	-0.43140 	6.65575 	4.89035 	1.93790 	-0.34770 	8.52425 	5.53590 	2.54210 	-0.46405 	8.02120 	6.26420 	2.25620 	0.65930 	6.77575 	6.06110 	3.13720 	0.49920 	4.29030 	3.51500 	2.19075 	3.19160 	2.34705 
-0.06975 	1.54965 	4.59930 	3.43765 	1.29115 	-0.32515 	6.85775 	5.08335 	2.13640 	-0.19765 	8.71770 	5.71585 	2.77040 	-0.25635 	8.19360 	6.45595 	2.46240 	0.85720 	6.93770 	6.22085 	3.31790 	0.65020 	4.39915 	3.62980 	2.29920 	3.22930 	2.32355 
-0.04930 	1.64650 	4.75505 	3.59510 	1.45930 	-0.21820 	7.04605 	5.26705 	2.33660 	-0.05010 	8.89995 	5.88975 	3.00020 	-0.04915 	8.35920 	6.64355 	2.66925 	1.04840 	7.09580 	6.37805 	3.50005 	0.80450 	4.50675 	3.74520 	2.40895 	3.26480 	2.29770 
-0.03205 	1.73145 	4.89745 	3.74290 	1.62345 	-0.11060 	7.21940 	5.44000 	2.53595 	0.09525 	9.06970 	6.05700 	3.22950 	0.15880 	8.51660 	6.82555 	2.87550 	1.23325 	7.24890 	6.53155 	3.68215 	0.96115 	4.61285 	3.86065 	2.51935 	3.29845 	2.27030 
-0.01850 	1.80190 	5.02560 	3.87975 	1.78190 	-0.00240 	7.37665 	5.60065 	2.73180 	0.23890 	9.22565 	6.21650 	3.45600 	0.36865 	8.66445 	7.00025 	3.07970 	1.41185 	7.39570 	6.67990 	3.86240 	1.11915 	4.71695 	3.97535 	2.62990 	3.33040 	2.24210 
-0.00910 	1.85635 	5.13865 	4.00460 	1.93310 	0.10635 	7.51690 	5.74775 	2.92175 	0.38155 	9.36655 	6.36695 	3.67750 	0.58085 	8.80140 	7.16590 	3.28045 	1.58445 	7.53500 	6.82155 	4.03915 	1.27735 	4.81870 	4.08825 	2.73995 	3.36075 	2.21360 
-0.00425 	1.89425 	5.23615 	4.11700 	2.07615 	0.21550 	7.63960 	5.88060 	3.10375 	0.52360 	9.49160 	6.50730 	3.89160 	0.79550 	8.92625 	7.32100 	3.47630 	1.75080 	7.66565 	6.95545 	4.21080 	1.43455 	4.91760 	4.19860 	2.84900 	3.38965 	2.18530 
-0.00415 	1.91615 	5.31850 	4.21715 	2.21075 	0.32505 	7.74475 	5.99920 	3.27645 	0.66535 	9.60030 	6.63675 	4.09650 	1.01170 	9.03835 	7.46430 	3.66610 	1.91025 	7.78690 	7.08040 	4.37605 	1.58955 	5.01325 	4.30565 	2.95660 	3.41700 	2.15780 
-0.00860 	1.92370 	5.38635 	4.30555 	2.33715 	0.43510 	7.83295 	6.10400 	3.43885 	0.80710 	9.69270 	6.75475 	4.29055 	1.22795 	9.13730 	7.59510 	3.84880 	2.06155 	7.89820 	7.19590 	4.53400 	1.74135 	5.10530 	4.40870 	3.06225 	3.44300 	2.13140 
-0.01725 	1.91940 	5.44080 	4.38350 	2.45570 	0.54535 	7.90515 	6.19605 	3.59015 	0.94870 	9.76940 	6.86125 	4.47260 	1.44170 	9.22315 	7.71300 	4.02355 	2.20275 	7.99925 	7.30145 	4.68405 	1.88915 	5.19350 	4.50720 	3.16565 	3.46745 	2.10635 
-0.02960 	1.90630 	5.48330 	4.45205 	2.56650 	0.65525 	7.96250 	6.27630 	3.72950 	1.08960 	9.83100 	6.95640 	4.64190 	1.64970 	9.29625 	7.81800 	4.19005 	2.33175 	8.09000 	7.39680 	4.82585 	2.03225 	5.27730 	4.60065 	3.26625 	3.49030 	2.08270 
-0.04490 	1.88760 	5.51525 	4.51230 	2.66945 	0.76395 	8.00635 	6.34595 	3.85595 	1.22880 	9.87845 	7.04060 	4.79785 	1.84830 	9.35720 	7.91040 	4.34800 	2.44625 	8.17070 	7.48200 	4.95920 	2.16990 	5.35620 	4.68855 	3.36345 	3.51110 	2.06010 
-0.06255 	1.86660 	5.53800 	4.56525 	2.76380 	0.86995 	8.03805 	6.40585 	3.96840 	1.36470 	9.91270 	7.11410 	4.94010 	2.03340 	9.40655 	7.99070 	4.49750 	2.54415 	8.24140 	7.55705 	5.08420 	2.30160 	5.42965 	4.77040 	3.45655 	3.52930 	2.03800 
-0.08195 	1.84595 	5.55270 	4.61130 	2.84865 	0.97165 	8.05860 	6.45665 	4.06575 	1.49545 	9.93460 	7.17745 	5.06845 	2.20110 	9.44495 	8.05955 	4.63885 	2.62385 	8.30240 	7.62215 	5.20085 	2.42685 	5.49685 	4.84565 	3.54490 	3.54435 	2.01565 
-0.10285 	1.82765 	5.56035 	4.65080 	2.92275 	1.06705 	8.06905 	6.49895 	4.14735 	1.61890 	9.94490 	7.23110 	5.18280 	2.34745 	9.47290 	8.11745 	4.77190 	2.68405 	8.35375 	7.67740 	5.30925 	2.54495 	5.55715 	4.91370 	3.62755 	3.55550 	1.99235 
-0.12530 	1.81290 	5.56155 	4.68360 	2.98525 	1.15400 	8.07000 	6.53305 	4.21305 	1.73295 	9.94400 	7.27545 	5.28315 	2.46905 	9.49085 	8.16495 	4.89655 	2.72400 	8.39535 	7.72275 	5.40905 	2.65520 	5.60950 	4.97380 	3.70345 	3.56205 	1.96710 
-0.14960 	1.80190 	5.55660 	4.70955 	3.03505 	1.23025 	8.06195 	6.55920 	4.26320 	1.83575 	9.93230 	7.31085 	5.36975 	2.56300 	9.49885 	8.20210 	5.01210 	2.74320 	8.42700 	7.75810 	5.49980 	2.75675 	5.65290 	5.02500 	3.77150 	3.56315 	1.93910 
-0.17650 	1.79385 	5.54555 	4.72815 	3.07150 	1.29385 	8.04520 	6.57740 	4.29840 	1.92540 	9.91005 	7.33760 	5.44295 	2.62745 	9.49695 	8.22895 	5.11770 	2.74175 	8.44835 	7.78310 	5.58075 	2.84880 	5.68650 	5.06645 	3.83055 	3.55820 	1.90760 
-0.20660 	1.78715 	5.52815 	4.73890 	3.09405 	1.34320 	8.01985 	6.58770 	4.31945 	2.00085 	9.87715 	7.35570 	5.50300 	2.66155 	9.48500 	8.24515 	5.21230 	2.72040 	8.45870 	7.79720 	5.65075 	2.93060 	5.70930 	5.09735 	3.87955 	3.54660 	1.87205 
-0.24090 	1.77940 	5.50395 	4.74100 	3.10245 	1.37740 	7.98585 	6.58945 	4.32705 	2.06125 	9.83360 	7.36490 	5.55005 	2.66595 	9.46255 	8.25020 	5.29470 	2.68045 	8.45750 	7.79985 	5.70885 	3.00170 	5.72055 	5.11685 	3.91760 	3.52785 	1.83190 
-0.28025 	1.76775 	5.47240 	4.73375 	3.09675 	1.39620 	7.94275 	6.58175 	4.32220 	2.10655 	9.77900 	7.36465 	5.58420 	2.64260 	9.42905 	8.24340 	5.36370 	2.62370 	8.44395 	7.79030 	5.75370 	3.06140 	5.71955 	5.12440 	3.94410 	3.50155 	1.78695 
-0.32545 	1.74915 	5.43260 	4.71635 	3.07735 	1.39995 	7.89005 	6.56345 	4.30570 	2.13740 	9.71300 	7.35375 	5.60515 	2.59470 	9.38380 	8.22395 	5.41790 	2.55250 	8.41740 	7.76780 	5.78420 	3.10930 	5.70590 	5.11955 	3.95865 	3.46740 	1.73715 
-0.37750 	1.72040 	5.38360 	4.68800 	3.04465 	1.38925 	7.82685 	6.53295 	4.27855 	2.15455 	9.63470 	7.33085 	5.61270 	2.52635 	9.32595 	8.19075 	5.45600 	2.46965 	8.37710 	7.73160 	5.79935 	3.14515 	5.67920 	5.10180 	3.96095 	3.42490 	1.68205 
-0.43715 	1.67850 	5.32425 	4.64765 	2.99930 	1.36475 	7.75205 	6.48850 	4.24165 	2.15915 	9.54345 	7.29395 	5.60635 	2.44190 	9.25440 	8.14275 	5.47675 	2.37830 	8.32205 	7.68100 	5.79820 	3.16860 	5.63910 	5.07080 	3.95090 	3.37360 	1.62160 
-0.50525 	1.62100 	5.25340 	4.59420 	2.94200 	1.32705 	7.66440 	6.42850 	4.19565 	2.15185 	9.43795 	7.24125 	5.58560 	2.34595 	9.16805 	8.07875 	5.47900 	2.28205 	8.25160 	7.61520 	5.78005 	3.17960 	5.58530 	5.02615 	3.92835 	3.31290 	1.55525 
-0.58240 	1.54620 	5.16990 	4.52660 	2.87300 	1.27670 	7.56260 	6.35125 	4.14070 	2.13355 	9.31735 	7.17090 	5.54960 	2.24285 	9.06585 	7.99770 	5.46185 	2.18455 	8.16510 	7.53370 	5.74465 	3.17845 	5.51755 	4.96770 	3.89325 	3.24250 	1.48285 
-0.66875 	1.45345 	5.07295 	4.44395 	2.79260 	1.21435 	7.44555 	6.25525 	4.07700 	2.10515 	9.18080 	7.08135 	5.49765 	2.13660 	8.94715 	7.89910 	5.42510 	2.08935 	8.06225 	7.43650 	5.69215 	3.16575 	5.43605 	4.89555 	3.84610 	3.16240 	1.40435 
-0.76415 	1.34315 	4.96200 	4.34560 	2.70105 	1.14105 	7.31265 	6.13985 	4.00420 	2.06770 	9.02780 	6.97185 	5.42940 	2.03055 	8.81155 	7.78270 	5.36925 	1.99985 	7.94310 	7.32370 	5.62335 	3.14275 	5.34130 	4.81030 	3.78760 	3.07300 	1.32045 
-0.86795 	1.21695 	4.83705 	4.23150 	2.59875 	1.05800 	7.16355 	6.00490 	3.92215 	2.02235 	8.85830 	6.84230 	5.34475 	1.92740 	8.65920 	7.64910 	5.29545 	1.91875 	7.80825 	7.19620 	5.53955 	3.11105 	5.23405 	4.71300 	3.71870 	2.97520 	1.23205 
-0.97905 	1.07750 	4.69855 	4.10220 	2.48655 	0.96685 	6.99870 	5.85130 	3.83080 	1.97015 	8.67285 	6.69360 	5.24425 	1.82900 	8.49080 	7.49930 	5.20555 	1.84820 	7.65875 	7.05520 	5.44260 	3.07260 	5.11560 	4.60490 	3.64075 	2.87030 	1.14050 
-1.09605 	0.92835 	4.54755 	3.95885 	2.36555 	0.86930 	6.81885 	5.68065 	3.73035 	1.91215 	8.47250 	6.52740 	5.12925 	1.73660 	8.30760 	7.33490 	5.10195 	1.78970 	7.49585 	6.90215 	5.33445 	3.02955 	4.98715 	4.48765 	3.55525 	2.75980 	1.04740 
-1.21725 	0.77310 	4.38530 	3.80295 	2.23740 	0.76705 	6.62525 	5.49495 	3.62125 	1.84905 	8.25855 	6.34600 	5.00145 	1.65070 	8.11085 	7.15780 	4.98725 	1.74405 	7.32110 	6.73865 	5.21730 	2.98380 	4.85020 	4.36285 	3.46390 	2.64510 	0.95425 
-1.34100 	0.61585 	4.21315 	3.63630 	2.10345 	0.66200 	6.41930 	5.29645 	3.50375 	1.78170 	8.03240 	6.15175 	4.86280 	1.57155 	7.90215 	6.96965 	4.86375 	1.71110 	7.13585 	6.56600 	5.09290 	2.93675 	4.70585 	4.23185 	3.36800 	2.52760 	0.86235 
-1.46570 	0.45970 	4.03240 	3.46035 	1.96495 	0.55565 	6.20205 	5.08710 	3.37810 	1.71050 	7.79510 	5.94675 	4.71535 	1.49885 	7.68240 	6.77185 	4.73305 	1.69000 	6.94120 	6.38530 	4.96245 	2.88920 	4.55495 	4.09580 	3.26880 	2.40810 	0.77260 
-1.59025 	0.30725 	3.84380 	3.27605 	1.82260 	0.44910 	5.97435 	4.86820 	3.24415 	1.63530 	7.54755 	5.73250 	4.56085 	1.43180 	7.45250 	6.56510 	4.59615 	1.67905 	6.73770 	6.19695 	4.82655 	2.84105 	4.39785 	3.95510 	3.16705 	2.28700 	0.68520 
-1.71370 	0.16015 	3.64800 	3.08425 	1.67675 	0.34265 	5.73690 	4.64090 	3.10150 	1.55525 	7.29010 	5.51010 	4.40050 	1.36915 	7.21260 	6.34975 	4.45325 	1.67605 	6.52555 	6.00095 	4.68515 	2.79180 	4.23455 	3.80985 	3.06300 	2.16430 	0.60010 
-1.83540 	0.01905 	3.44555 	2.88550 	1.52735 	0.23630 	5.49030 	4.40615 	2.95000 	1.46930 	7.02315 	5.28040 	4.23535 	1.30950 	6.96310 	6.12570 	4.30420 	1.67900 	6.30485 	5.79710 	4.53810 	2.74060 	4.06490 	3.65990 	2.95665 	2.03985 	0.51690 
-1.95475 	-0.11590 	3.23705 	2.68060 	1.37415 	0.12935 	5.23545 	4.16510 	2.78975 	1.37630 	6.74735 	5.04420 	4.06595 	1.25135 	6.70430 	5.89320 	4.14860 	1.68595 	6.07585 	5.58535 	4.38515 	2.68675 	3.88875 	3.50510 	2.84800 	1.91350 	0.43505 
-2.07140 	-0.24575 	3.02325 	2.47045 	1.21660 	0.02100 	4.97325 	3.91900 	2.62125 	1.27550 	6.46335 	4.80220 	3.89240 	1.19365 	6.43685 	5.65230 	3.98650 	1.69555 	5.83890 	5.36590 	4.22630 	2.62965 	3.70635 	3.34555 	2.73700 	1.78515 	0.35410 
-2.18540 	-0.37175 	2.80485 	2.25585 	1.05410 	-0.08970 	4.70490 	3.66925 	2.44535 	1.16640 	6.17215 	4.55515 	3.71470 	1.13560 	6.16150 	5.40375 	3.81790 	1.70685 	5.59465 	5.13910 	4.06185 	2.56900 	3.51790 	3.18145 	2.62355 	1.65495 	0.27385 
-2.29650 	-0.49590 	2.58270 	2.03790 	0.88595 	-0.20320 	4.43155 	3.41725 	2.26320 	1.04885 	5.87470 	4.30400 	3.53270 	1.07675 	5.87935 	5.14830 	3.64320 	1.71910 	5.34400 	4.90560 	3.89215 	2.50475 	3.32415 	3.01310 	2.50765 	1.52325 	0.19410 
-2.40480 	-0.62025 	2.35760 	1.81750 	0.71175 	-0.31965 	4.15445 	3.16425 	2.07595 	0.92355 	5.57210 	4.04955 	3.34615 	1.01700 	5.59155 	4.88685 	3.46325 	1.73155 	5.08800 	4.66650 	3.71780 	2.43675 	3.12605 	2.84120 	2.38930 	1.39045 	0.11500 
-2.51020 	-0.74690 	2.13060 	1.59575 	0.53185 	-0.43830 	3.87480 	2.91150 	1.88510 	0.79160 	5.26570 	3.79270 	3.15510 	0.95650 	5.29950 	4.62090 	3.27910 	1.74350 	4.82810 	4.42275 	3.53945 	2.36525 	2.92480 	2.66670 	2.26875 	1.25740 	0.03700 
-2.61235 	-0.87745 	1.90260 	1.37400 	0.34715 	-0.55780 	3.59395 	2.66010 	1.69205 	0.65495 	4.95690 	3.53440 	2.96010 	0.89550 	5.00480 	4.35170 	3.09200 	1.75420 	4.56575 	4.17580 	3.35815 	2.29060 	2.72215 	2.49070 	2.14665 	1.12495 	-0.03925 
-2.71085 	-1.01265 	1.67485 	1.15360 	0.15930 	-0.67625 	3.31325 	2.41120 	1.49835 	0.51585 	4.64720 	3.27575 	2.76210 	0.83415 	4.70900 	4.08125 	2.90380 	1.76290 	4.30265 	3.92735 	3.17505 	2.21340 	2.51980 	2.31470 	2.02385 	0.99425 	-0.11305 
-2.80500 	-1.15285 	1.44860 	0.93605 	-0.02940 	-0.79150 	3.03400 	2.16590 	1.30575 	0.37660 	4.33820 	3.01780 	2.56265 	0.77285 	4.41390 	3.81135 	2.71630 	1.76905 	4.04070 	3.67925 	2.99170 	2.13455 	2.31995 	2.14050 	1.90135 	0.86640 	-0.18340 
-2.89370 	-1.29700 	1.22535 	0.72295 	-0.21610 	-0.90135 	2.75785 	1.92540 	1.11575 	0.23990 	4.03180 	2.76205 	2.36380 	0.71215 	4.12145 	3.54420 	2.53195 	1.77250 	3.78195 	3.43345 	2.81000 	2.05510 	2.12460 	1.96985 	1.78075 	0.74275 	-0.24935 
-2.97605 	-1.44330 	1.00655 	0.51595 	-0.39785 	-1.00390 	2.48625 	1.69100 	0.93035 	0.10825 	3.72985 	2.51015 	2.16780 	0.65280 	3.83355 	3.28200 	2.35290 	1.77350 	3.52835 	3.19220 	2.63185 	1.97625 	1.93590 	1.80465 	1.66355 	0.62465 	-0.30975 
-3.05050 	-1.58920 	0.79400 	0.31675 	-0.57180 	-1.09770 	2.22100 	1.46405 	0.75120 	-0.01620 	3.43425 	2.26365 	1.97720 	0.59580 	3.55200 	3.02680 	2.18135 	1.77280 	3.28180 	2.95765 	2.45930 	1.89915 	1.75565 	1.64675 	1.55140 	0.51335 	-0.36365 
-3.11610 	-1.73160 	0.58915 	0.12675 	-0.73565 	-1.18190 	1.96335 	1.24555 	0.57980 	-0.13150 	3.14655 	2.02410 	1.79400 	0.54225 	3.27850 	2.78040 	2.01905 	1.77135 	3.04390 	2.73160 	2.29395 	1.82465 	1.58525 	1.49745 	1.44565 	0.40995 	-0.41020 
-3.17195 	-1.86740 	0.39310 	-0.05320 	-0.88790 	-1.25670 	1.71450 	1.03615 	0.41710 	-0.23650 	2.86805 	1.79260 	1.61985 	0.49310 	3.01415 	2.54405 	1.86715 	1.76970 	2.81585 	2.51540 	2.13700 	1.75335 	1.42570 	1.35775 	1.34730 	0.31525 	-0.44885 
-3.21770 	-1.99360 	0.20665 	-0.22255 	-1.02800 	-1.32300 	1.47505 	0.83635 	0.26375 	-0.33045 	2.59950 	1.56995 	1.45560 	0.44905 	2.75965 	2.31840 	1.72600 	1.76795 	2.59820 	2.31000 	1.98920 	1.68545 	1.27725 	1.22805 	1.25675 	0.22955 	-0.47940 
-3.25325 	-2.10780 	0.03015 	-0.38140 	-1.15605 	-1.38175 	1.24545 	0.64575 	0.11960 	-0.41320 	2.34115 	1.35635 	1.30165 	0.41025 	2.51530 	2.10385 	1.59555 	1.76550 	2.39120 	2.11565 	1.85080 	1.62090 	1.13965 	1.10845 	1.17415 	0.15270 	-0.50220 
-3.27925 	-2.20805 	-0.13655 	-0.53020 	-1.27275 	-1.43430 	1.02535 	0.46390 	-0.01585 	-0.48500 	2.09300 	1.15175 	1.15775 	0.37670 	2.28105 	1.90000 	1.47530 	1.76100 	2.19470 	1.93250 	1.72150 	1.55945 	1.01235 	0.99845 	1.09935 	0.08425 	-0.51755 
-3.29640 	-2.29330 	-0.29375 	-0.66975 	-1.37895 	-1.48130 	0.81450 	0.28970 	-0.14310 	-0.54670 	1.85465 	0.95575 	1.02335 	0.34780 	2.05665 	1.70645 	1.36430 	1.75265 	2.00830 	1.76010 	1.60075 	1.50065 	0.89445 	0.89740 	1.03160 	0.02350 	-0.52630 
-3.30595 	-2.36345 	-0.44225 	-0.80100 	-1.47575 	-1.52330 	0.61220 	0.12210 	-0.26295 	-0.59965 	1.62550 	0.76790 	0.89760 	0.32245 	1.84165 	1.52260 	1.26130 	1.73845 	1.83150 	1.59785 	1.48760 	1.44390 	0.78490 	0.80430 	0.97025 	-0.03030 	-0.52925 
-3.30935 	-2.41915 	-0.58290 	-0.92495 	-1.56410 	-1.56050 	0.41780 	-0.04020 	-0.37610 	-0.64555 	1.40495 	0.58770 	0.77930 	0.29925 	1.63555 	1.34770 	1.16500 	1.71680 	1.66360 	1.44500 	1.38100 	1.38855 	0.68255 	0.71815 	0.91415 	-0.07820 	-0.52740 
-3.30795 	-2.46180 	-0.71645 	-1.04255 	-1.64510 	-1.59320 	0.23060 	-0.19795 	-0.48335 	-0.68660 	1.19235 	0.41490 	0.66710 	0.27620 	1.43800 	1.18115 	1.07380 	1.68625 	1.50415 	1.30085 	1.27965 	1.33380 	0.58645 	0.63770 	0.86225 	-0.12110 	-0.52175 
-3.30310 	-2.49370 	-0.84380 	-1.15440 	-1.71960 	-1.62195 	0.05015 	-0.35180 	-0.58540 	-0.72500 	0.98725 	0.24940 	0.55975 	0.25130 	1.24860 	1.02255 	0.98630 	1.64590 	1.35260 	1.16475 	1.18245 	1.27900 	0.49560 	0.56175 	0.81335 	-0.15995 	-0.51335 
-3.29600 	-2.51735 	-0.96565 	-1.26115 	-1.78830 	-1.64725 	-0.12400 	-0.50180 	-0.68290 	-0.76285 	0.78930 	0.09145 	0.45590 	0.22230 	1.06725 	0.87145 	0.90105 	1.59525 	1.20855 	1.03600 	1.08825 	1.22320 	0.40925 	0.48940 	0.76630 	-0.19555 	-0.50320 
-3.28750 	-2.53570 	-1.08260 	-1.36285 	-1.85190 	-1.66990 	-0.29210 	-0.64750 	-0.77635 	-0.80190 	0.59845 	-0.05825 	0.35475 	0.18755 	0.89395 	0.72780 	0.81680 	1.53395 	1.07170 	0.91415 	0.99610 	1.16595 	0.32690 	0.41955 	0.72010 	-0.22865 	-0.49205 
-3.27825 	-2.55155 	-1.19490 	-1.45940 	-1.91060 	-1.69045 	-0.45415 	-0.78800 	-0.86575 	-0.84340 	0.41475 	-0.19900 	0.25590 	0.14615 	0.72870 	0.59150 	0.73260 	1.46195 	0.94205 	0.79895 	0.90525 	1.10670 	0.24830 	0.35160 	0.67385 	-0.25970 	-0.48055 
-3.26840 	-2.56720 	-1.30255 	-1.55035 	-1.96420 	-1.70920 	-0.60990 	-0.92235 	-0.95070 	-0.88770 	0.23875 	-0.32965 	0.15965 	0.09790 	0.57210 	0.46290 	0.64785 	1.38000 	0.81985 	0.69035 	0.81540 	1.04570 	0.17355 	0.28550 	0.62730 	-0.28885 	-0.46865 
-3.25795 	-2.58460 	-1.40515 	-1.63490 	-2.01235 	-1.72600 	-0.75880 	-1.04910 	-1.03050 	-0.93425 	0.07105 	-0.44920 	0.06655 	0.04370 	0.42470 	0.34255 	0.56265 	1.28940 	0.70570 	0.58890 	0.72690 	0.98350 	0.10355 	0.22145 	0.58055 	-0.31580 	-0.45600 
-3.24635 	-2.60475 	-1.50215 	-1.71235 	-2.05425 	-1.74045 	-0.90025 	-1.16705 	-1.10440 	-0.98170 	-0.08740 	-0.55635 	-0.02225 	-0.01525 	0.28745 	0.23125 	0.47800 	1.19195 	0.60045 	0.49540 	0.64065 	0.92150 	0.03920 	0.16030 	0.53425 	-0.33980 	-0.44180 
-3.23320 	-2.62810 	-1.59285 	-1.78195 	-2.08930 	-1.75170 	-1.03355 	-1.27510 	-1.17140 	-1.02820 	-0.23570 	-0.65055 	-0.10555 	-0.07740 	0.16125 	0.12985 	0.39515 	1.09005 	0.50530 	0.41095 	0.55785 	0.86130 	-0.01805 	0.10325 	0.48940 	-0.36015 	-0.42510 
-3.21815 	-2.65435 	-1.67675 	-1.84330 	-2.11675 	-1.75900 	-1.15815 	-1.37275 	-1.23110 	-1.07170 	-0.37315 	-0.73145 	-0.18235 	-0.14130 	0.04700 	0.03930 	0.31600 	0.98605 	0.42120 	0.33660 	0.48020 	0.80470 	-0.06685 	0.05150 	0.44695 	-0.37585 	-0.40500 
-3.20085 	-2.68250 	-1.75325 	-1.89615 	-2.13615 	-1.76145 	-1.27365 	-1.45980 	-1.28300 	-1.11045 	-0.49905 	-0.79940 	-0.25150 	-0.20585 	-0.05480 	-0.03975 	0.24235 	0.88205 	0.34905 	0.27350 	0.40915 	0.75300 	-0.10615 	0.00630 	0.40775 	-0.38635 	-0.38090 
-3.18110 	-2.71115 	-1.82220 	-1.94070 	-2.14730 	-1.75850 	-1.38015 	-1.53665 	-1.32700 	-1.14285 	-0.61325 	-0.85515 	-0.31225 	-0.26985 	-0.14380 	-0.10690 	0.17590 	0.77960 	0.28940 	0.22225 	0.34620 	0.70705 	-0.13515 	-0.03150 	0.37230 	-0.39120 	-0.35230 
-3.15890 	-2.73855 	-1.88375 	-1.97740 	-2.15050 	-1.74955 	-1.47775 	-1.60380 	-1.36320 	-1.16800 	-0.71575 	-0.90005 	-0.36420 	-0.33235 	-0.22010 	-0.16225 	0.11800 	0.67990 	0.24245 	0.18315 	0.29225 	0.66705 	-0.15360 	-0.06130 	0.34095 	-0.39035 	-0.31925 
-3.13440 	-2.76275 	-1.93795 	-2.00700 	-2.14650 	-1.73470 	-1.56710 	-1.66225 	-1.39200 	-1.18575 	-0.80715 	-0.93575 	-0.40715 	-0.39265 	-0.28425 	-0.20620 	0.06920 	0.58345 	0.20785 	0.15590 	0.24770 	0.63260 	-0.16165 	-0.08305 	0.31315 	-0.38405 	-0.28220 
-3.10785 	-2.78170 	-1.98550 	-2.03050 	-2.13665 	-1.71435 	-1.64895 	-1.71305 	-1.41410 	-1.19650 	-0.88825 	-0.96410 	-0.44160 	-0.45015 	-0.33710 	-0.23970 	0.02930 	0.49050 	0.18475 	0.13965 	0.21255 	0.60265 	-0.16015 	-0.09720 	0.28830 	-0.37290 	-0.24205 
-3.07970 	-2.79355 	-2.02695 	-2.04900 	-2.12280 	-1.68920 	-1.72405 	-1.75715 	-1.43010 	-1.20135 	-0.96000 	-0.98685 	-0.46820 	-0.50490 	-0.37965 	-0.26390 	-0.00235 	0.40095 	0.17220 	0.13335 	0.18620 	0.57580 	-0.15000 	-0.10435 	0.26555 	-0.35770 	-0.19985 
-3.05025 	-2.79670 	-2.06295 	-2.06325 	-2.10630 	-1.66025 	-1.79320 	-1.79525 	-1.44090 	-1.20145 	-1.02335 	-1.00555 	-0.48770 	-0.55715 	-0.41290 	-0.27985 	-0.02665 	0.31495 	0.16920 	0.13590 	0.16770 	0.55065 	-0.13230 	-0.10525 	0.24415 	-0.33890 	-0.15670 
-3.01960 	-2.78975 	-2.09375 	-2.07375 	-2.08850 	-1.62825 	-1.85670 	-1.82755 	-1.44705 	-1.19790 	-1.07895 	-1.02125 	-0.50090 	-0.60745 	-0.43765 	-0.28870 	-0.04475 	0.23275 	0.17470 	0.14605 	0.15610 	0.52620 	-0.10805 	-0.10045 	0.22385 	-0.31690 	-0.11350 
-2.98790 	-2.77205 	-2.11970 	-2.08065 	-2.07025 	-1.59365 	-1.91475 	-1.85435 	-1.44930 	-1.19160 	-1.12745 	-1.03475 	-0.50870 	-0.65635 	-0.45455 	-0.29110 	-0.05750 	0.15475 	0.18790 	0.16295 	0.15040 	0.50140 	-0.07790 	-0.09040 	0.20480 	-0.29180 	-0.07070 
-2.95535 	-2.74355 	-2.14105 	-2.08415 	-2.05220 	-1.55715 	-1.96765 	-1.87595 	-1.44840 	-1.18315 	-1.16920 	-1.04665 	-0.51220 	-0.70435 	-0.46410 	-0.28800 	-0.06615 	0.08125 	0.20800 	0.18570 	0.14960 	0.47580 	-0.04265 	-0.07530 	0.18730 	-0.26340 	-0.02875 
-2.92230 	-2.70540 	-2.15840 	-2.08470 	-2.03495 	-1.51920 	-2.01580 	-1.89295 	-1.44530 	-1.17310 	-1.20505 	-1.05750 	-0.51275 	-0.75175 	-0.46700 	-0.28015 	-0.07155 	0.01230 	0.23410 	0.21335 	0.15275 	0.44865 	-0.00285 	-0.05560 	0.17190 	-0.23175 	0.01210 
-2.88955 	-2.65980 	-2.17260 	-2.08285 	-2.01900 	-1.48070 	-2.05985 	-1.90635 	-1.44110 	-1.16225 	-1.23575 	-1.06820 	-0.51205 	-0.79880 	-0.46415 	-0.26865 	-0.07520 	-0.05225 	0.26530 	0.24480 	0.15855 	0.41910 	0.04065 	-0.03185 	0.15870 	-0.19710 	0.05140 
-2.85820 	-2.60975 	-2.18495 	-2.07985 	-2.00500 	-1.44260 	-2.10080 	-1.91760 	-1.43685 	-1.15165 	-1.26245 	-1.07930 	-0.51165 	-0.84550 	-0.45670 	-0.25455 	-0.07855 	-0.11295 	0.30020 	0.27880 	0.16570 	0.38625 	0.08675 	-0.00505 	0.14740 	-0.16005 	0.08845 
-2.82950 	-2.55915 	-2.19695 	-2.07695 	-1.99350 	-1.40635 	-2.13980 	-1.92805 	-1.43370 	-1.14300 	-1.28655 	-1.09155 	-0.51310 	-0.89155 	-0.44595 	-0.23920 	-0.08310 	-0.17040 	0.33760 	0.31420 	0.17300 	0.34895 	0.13440 	0.02380 	0.13735 	-0.12155 	0.12240 
-2.80485 	-2.51190 	-2.21020 	-2.07555 	-1.98575 	-1.37360 	-2.17820 	-1.93905 	-1.43265 	-1.13805 	-1.30920 	-1.10560 	-0.51785 	-0.93655 	-0.43315 	-0.22380 	-0.09035 	-0.22485 	0.37590 	0.34950 	0.17905 	0.30640 	0.18260 	0.05355 	0.12750 	-0.08275 	0.15225 
-2.78555 	-2.47210 	-2.22630 	-2.07730 	-1.98280 	-1.34610 	-2.21720 	-1.95185 	-1.43485 	-1.13835 	-1.33170 	-1.12185 	-0.52710 	-0.97935 	-0.41965 	-0.20935 	-0.10125 	-0.27645 	0.41410 	0.38385 	0.18305 	0.25805 	0.23040 	0.08315 	0.11700 	-0.04470 	0.17720 
-2.77250 	-2.44315 	-2.24640 	-2.08335 	-1.98595 	-1.32520 	-2.25780 	-1.96740 	-1.44140 	-1.14510 	-1.35495 	-1.14060 	-0.54165 	-1.01865 	-0.40620 	-0.19655 	-0.11650 	-0.32495 	0.45130 	0.41650 	0.18445 	0.20400 	0.27745 	0.11220 	0.10530 	-0.00820 	0.19685 
-2.76645 	-2.42765 	-2.27155 	-2.09455 	-1.99610 	-1.31195 	-2.30060 	-1.98625 	-1.45295 	-1.15860 	-1.37940 	-1.16195 	-0.56185 	-1.05280 	-0.39340 	-0.18570 	-0.13610 	-0.37010 	0.48725 	0.44750 	0.18325 	0.14495 	0.32385 	0.14050 	0.09225 	0.02645 	0.21125 
-2.76770 	-2.42705 	-2.30200 	-2.11130 	-2.01395 	-1.30665 	-2.34595 	-2.00875 	-1.46960 	-1.17855 	-1.40510 	-1.18560 	-0.58785 	-1.08015 	-0.38135 	-0.17650 	-0.15950 	-0.41185 	0.52210 	0.47690 	0.17985 	0.08200 	0.37005 	0.16860 	0.07810 	0.05920 	0.22075 
-2.77615 	-2.44175 	-2.33770 	-2.13360 	-2.03930 	-1.30950 	-2.39365 	-2.03490 	-1.49135 	-1.20435 	-1.43195 	-1.21145 	-0.61940 	-1.09965 	-0.36980 	-0.16865 	-0.18605 	-0.45015 	0.55620 	0.50535 	0.17485 	0.01645 	0.41655 	0.19690 	0.06355 	0.09035 	0.22595 
-2.79140 	-2.47095 	-2.37830 	-2.16105 	-2.07185 	-1.32020 	-2.44365 	-2.06445 	-1.51795 	-1.23545 	-1.45945 	-1.23915 	-0.65640 	-1.11090 	-0.35855 	-0.16160 	-0.21500 	-0.48535 	0.59005 	0.53355 	0.16890 	-0.05025 	0.46410 	0.22615 	0.04925 	0.12015 	0.22725 
-2.81285 	-2.51295 	-2.42310 	-2.19305 	-2.11060 	-1.33835 	-2.49535 	-2.09705 	-1.54885 	-1.27100 	-1.48720 	-1.26825 	-0.69865 	-1.11430 	-0.34710 	-0.15490 	-0.24550 	-0.51810 	0.62425 	0.56205 	0.16255 	-0.11695 	0.51285 	0.25675 	0.03600 	0.14880 	0.22515 
-2.83965 	-2.56500 	-2.47105 	-2.22865 	-2.15415 	-1.36325 	-2.54815 	-2.13210 	-1.58335 	-1.31020 	-1.51475 	-1.29840 	-0.74575 	-1.11060 	-0.33520 	-0.14795 	-0.27675 	-0.54900 	0.65915 	0.59135 	0.15635 	-0.18230 	0.56320 	0.28915 	0.02445 	0.17670 	0.22025 
-2.87065 	-2.62360 	-2.52105 	-2.26665 	-2.20060 	-1.39400 	-2.60125 	-2.16895 	-1.62020 	-1.35215 	-1.54155 	-1.32930 	-0.79700 	-1.10140 	-0.32235 	-0.14045 	-0.30810 	-0.57860 	0.69515 	0.62200 	0.15090 	-0.24505 	0.61500 	0.32370 	0.01530 	0.20410 	0.21315 
-2.90465 	-2.68485 	-2.57185 	-2.30555 	-2.24800 	-1.42960 	-2.65390 	-2.20680 	-1.65805 	-1.39575 	-1.56730 	-1.36060 	-0.85140 	-1.08820 	-0.30825 	-0.13220 	-0.33855 	-0.60735 	0.73240 	0.65430 	0.14680 	-0.30405 	0.66820 	0.36060 	0.00920 	0.23125 	0.20460 
-2.94025 	-2.74505 	-2.62220 	-2.34410 	-2.29415 	-1.46870 	-2.70520 	-2.24490 	-1.69520 	-1.43980 	-1.59155 	-1.39220 	-0.90735 	-1.07285 	-0.29270 	-0.12305 	-0.36730 	-0.63545 	0.77090 	0.68845 	0.14465 	-0.35790 	0.72250 	0.40005 	0.00685 	0.25860 	0.19555 
-2.97620 	-2.80045 	-2.67100 	-2.38090 	-2.33730 	-1.50995 	-2.75450 	-2.28250 	-1.73020 	-1.48310 	-1.61415 	-1.42405 	-0.96325 	-1.05720 	-0.27555 	-0.11295 	-0.39340 	-0.66300 	0.81070 	0.72455 	0.14520 	-0.40570 	0.77765 	0.44215 	0.00885 	0.28640 	0.18685 
-3.01140 	-2.84805 	-2.71720 	-2.41490 	-2.37585 	-1.55165 	-2.80100 	-2.31910 	-1.76170 	-1.52415 	-1.63485 	-1.45595 	-1.01735 	-1.04270 	-0.25655 	-0.10185 	-0.41610 	-0.69000 	0.85160 	0.76265 	0.14915 	-0.44625 	0.83340 	0.48710 	0.01570 	0.31485 	0.17920 
-3.04490 	-2.88575 	-2.76000 	-2.44525 	-2.40885 	-1.59210 	-2.84400 	-2.35395 	-1.78865 	-1.56165 	-1.65350 	-1.48770 	-1.06750 	-1.03080 	-0.23560 	-0.08965 	-0.43465 	-0.71620 	0.89365 	0.80280 	0.15730 	-0.47865 	0.88940 	0.53500 	0.02785 	0.34420 	0.17330 
-3.07590 	-2.91230 	-2.79865 	-2.47135 	-2.43590 	-1.62985 	-2.88290 	-2.38630 	-1.81030 	-1.59455 	-1.66985 	-1.51860 	-1.11200 	-1.02220 	-0.21240 	-0.07610 	-0.44820 	-0.74140 	0.93690 	0.84485 	0.17035 	-0.50245 	0.94555 	0.58595 	0.04565 	0.37460 	0.16955 
-3.10405 	-2.92760 	-2.83280 	-2.49300 	-2.45700 	-1.66380 	-2.91715 	-2.41545 	-1.82640 	-1.62220 	-1.68345 	-1.54775 	-1.14895 	-1.01715 	-0.18675 	-0.06090 	-0.45640 	-0.76535 	0.98125 	0.88895 	0.18870 	-0.51735 	1.00175 	0.63975 	0.06930 	0.40620 	0.16805 
-3.12930 	-2.93275 	-2.86220 	-2.51035 	-2.47275 	-1.69305 	-2.94620 	-2.44055 	-1.83685 	-1.64445 	-1.69395 	-1.57425 	-1.17700 	-1.01550 	-0.15845 	-0.04370 	-0.45880 	-0.78780 	1.02680 	0.93465 	0.21245 	-0.52370 	1.05780 	0.69625 	0.09870 	0.43900 	0.16890 
-3.15180 	-2.92980 	-2.88700 	-2.52340 	-2.48380 	-1.71715 	-2.96970 	-2.46095 	-1.84175 	-1.66140 	-1.70100 	-1.59695 	-1.19520 	-1.01655 	-0.12745 	-0.02430 	-0.45540 	-0.80855 	1.07325 	0.98170 	0.24130 	-0.52215 	1.11370 	0.75480 	0.13350 	0.47275 	0.17180 
-3.17195 	-2.92135 	-2.90730 	-2.53260 	-2.49085 	-1.73590 	-2.98740 	-2.47580 	-1.84135 	-1.67320 	-1.70415 	-1.61485 	-1.20280 	-1.01940 	-0.09395 	-0.00240 	-0.44610 	-0.82780 	1.12040 	1.02955 	0.27475 	-0.51370 	1.16910 	0.81470 	0.17285 	0.50735 	0.17650 
-3.19010 	-2.91025 	-2.92345 	-2.53815 	-2.49405 	-1.74910 	-2.99900 	-2.48430 	-1.83580 	-1.67985 	-1.70315 	-1.62690 	-1.19945 	-1.02310 	-0.05780 	0.02225 	-0.43095 	-0.84610 	1.16810 	1.07775 	0.31210 	-0.49940 	1.22380 	0.87535 	0.21615 	0.54240 	0.18275 
-3.20630 	-2.89940 	-2.93555 	-2.53990 	-2.49320 	-1.75665 	-3.00425 	-2.48585 	-1.82515 	-1.68100 	-1.69740 	-1.63205 	-1.18490 	-1.02665 	-0.01915 	0.04995 	-0.40955 	-0.86440 	1.21620 	1.12600 	0.35280 	-0.48010 	1.27770 	0.93600 	0.26250 	0.57765 	0.19010 
-3.22045 	-2.89100 	-2.94355 	-2.53755 	-2.48780 	-1.75840 	-3.00270 	-2.47965 	-1.80940 	-1.67645 	-1.68630 	-1.62915 	-1.15950 	-1.02930 	0.02220 	0.08130 	-0.38155 	-0.88345 	1.26470 	1.17405 	0.39645 	-0.45670 	1.33085 	0.99625 	0.31130 	0.61285 	0.19850 
-3.23190 	-2.88650 	-2.94725 	-2.53065 	-2.47685 	-1.75410 	-2.99400 	-2.46520 	-1.78865 	-1.66565 	-1.66920 	-1.61715 	-1.12375 	-1.03045 	0.06650 	0.11695 	-0.34640 	-0.90405 	1.31390 	1.22205 	0.44275 	-0.42955 	1.38330 	1.05585 	0.36200 	0.64780 	0.20770 
-3.23960 	-2.88645 	-2.94615 	-2.51860 	-2.45930 	-1.74350 	-2.97765 	-2.44220 	-1.76295 	-1.64870 	-1.64525 	-1.59510 	-1.07845 	-1.02970 	0.11415 	0.15755 	-0.30360 	-0.92615 	1.36410 	1.27045 	0.49180 	-0.39890 	1.43545 	1.11465 	0.41445 	0.68265 	0.21790 
-3.24235 	-2.89030 	-2.93965 	-2.50080 	-2.43395 	-1.72620 	-2.95335 	-2.41050 	-1.73215 	-1.62560 	-1.61380 	-1.56210 	-1.02470 	-1.02675 	0.16550 	0.20375 	-0.25290 	-0.94925 	1.41595 	1.31970 	0.54360 	-0.36465 	1.48755 	1.17290 	0.46870 	0.71755 	0.22955 
-3.23875 	-2.89665 	-2.92715 	-2.47670 	-2.39980 	-1.70205 	-2.92075 	-2.37025 	-1.69600 	-1.59700 	-1.57425 	-1.51770 	-0.96355 	-1.02150 	0.22085 	0.25595 	-0.19440 	-0.97170 	1.46980 	1.37020 	0.59800 	-0.32675 	1.54015 	1.23070 	0.52500 	0.75280 	0.24310 
-3.22770 	-2.90370 	-2.90825 	-2.44615 	-2.35635 	-1.67110 	-2.88005 	-2.32195 	-1.65445 	-1.56390 	-1.52655 	-1.46180 	-0.89605 	-1.01425 	0.28015 	0.31390 	-0.12880 	-0.99150 	1.52580 	1.42245 	0.65495 	-0.28505 	1.59325 	1.28815 	0.58350 	0.78895 	0.25910 
-3.20855 	-2.90925 	-2.88280 	-2.40930 	-2.30370 	-1.63375 	-2.83165 	-2.26665 	-1.60770 	-1.52740 	-1.47095 	-1.39520 	-0.82345 	-1.00540 	0.34295 	0.37710 	-0.05720 	-1.00635 	1.58375 	1.47610 	0.71395 	-0.23940 	1.64665 	1.34500 	0.64430 	0.82595 	0.27770 
-3.18120 	-2.91120 	-2.85110 	-2.36685 	-2.24280 	-1.59085 	-2.77670 	-2.20585 	-1.55615 	-1.48855 	-1.40865 	-1.31945 	-0.74730 	-0.99560 	0.40825 	0.44400 	0.01875 	-1.01375 	1.64295 	1.53090 	0.77435 	-0.18990 	1.69965 	1.40080 	0.70700 	0.86355 	0.29880 
-3.14635 	-2.90795 	-2.81405 	-2.31990 	-2.17515 	-1.54385 	-2.71670 	-2.14160 	-1.50085 	-1.44845 	-1.34115 	-1.23685 	-0.66920 	-0.98520 	0.47465 	0.51280 	0.09710 	-1.01140 	1.70220 	1.58585 	0.83525 	-0.13685 	1.75115 	1.45480 	0.77100 	0.90130 	0.32170 
-3.10505 	-2.89815 	-2.77280 	-2.26995 	-2.10280 	-1.49395 	-2.65330 	-2.07600 	-1.44300 	-1.40790 	-1.27030 	-1.15020 	-0.59085 	-0.97440 	0.54060 	0.58125 	0.17585 	-0.99730 	1.76015 	1.63990 	0.89565 	-0.08060 	1.79985 	1.50605 	0.83545 	0.93810 	0.34565 
-3.05880 	-2.88090 	-2.72860 	-2.21830 	-2.02750 	-1.44245 	-2.58830 	-2.01100 	-1.38385 	-1.36710 	-1.19805 	-1.06220 	-0.51405 	-0.96275 	0.60450 	0.64750 	0.25320 	-0.96965 	1.81545 	1.69180 	0.95465 	-0.02135 	1.84475 	1.55380 	0.89940 	0.97320 	0.36975 
-3.00910 	-2.85585 	-2.68255 	-2.16615 	-1.95110 	-1.39010 	-2.52310 	-1.94825 	-1.32485 	-1.32610 	-1.12630 	-0.97550 	-0.44010 	-0.94955 	0.66510 	0.70965 	0.32765 	-0.92730 	1.86700 	1.74075 	1.01140 	0.04060 	1.88465 	1.59735 	0.96210 	1.00590 	0.39340 
-2.95745 	-2.82300 	-2.63585 	-2.11475 	-1.87525 	-1.33725 	-2.45890 	-1.88915 	-1.26705 	-1.28425 	-1.05640 	-0.89230 	-0.37025 	-0.93400 	0.72145 	0.76655 	0.39805 	-0.86980 	1.91390 	1.78590 	1.06550 	0.10525 	1.91920 	1.63635 	1.02315 	1.03605 	0.41645 
-2.90515 	-2.78295 	-2.58935 	-2.06495 	-1.80175 	-1.28375 	-2.39670 	-1.83480 	-1.21165 	-1.24085 	-0.98960 	-0.81440 	-0.30535 	-0.91550 	0.77295 	0.81715 	0.46365 	-0.79800 	1.95570 	1.82675 	1.11630 	0.17235 	1.94795 	1.67080 	1.08225 	1.06340 	0.43905 
-2.85350 	-2.73700 	-2.54410 	-2.01810 	-1.73275 	-1.22965 	-2.33725 	-1.78610 	-1.15970 	-1.19510 	-0.92685 	-0.74320 	-0.24600 	-0.89400 	0.81920 	0.86085 	0.52365 	-0.71370 	1.99200 	1.86295 	1.16350 	0.24155 	1.97090 	1.70060 	1.13915 	1.08820 	0.46140 
-2.80365 	-2.68680 	-2.50105 	-1.97515 	-1.67025 	-1.17470 	-2.28140 	-1.74375 	-1.11210 	-1.14655 	-0.86895 	-0.67980 	-0.19225 	-0.86990 	0.85980 	0.89730 	0.57760 	-0.62000 	2.02250 	1.89405 	1.20670 	0.31225 	1.98795 	1.72590 	1.19360 	1.11050 	0.48365 
-2.75665 	-2.63475 	-2.46090 	-1.93700 	-1.61580 	-1.11940 	-2.22955 	-1.70810 	-1.06925 	-1.09520 	-0.81650 	-0.62490 	-0.14385 	-0.84425 	0.89445 	0.92630 	0.62530 	-0.52070 	2.04690 	1.91985 	1.24545 	0.38345 	1.99910 	1.74660 	1.24485 	1.13020 	0.50555 
-2.71350 	-2.58335 	-2.42440 	-1.90405 	-1.57030 	-1.06430 	-2.18225 	-1.67920 	-1.03110 	-1.04140 	-0.76990 	-0.57880 	-0.10045 	-0.81805 	0.92295 	0.94760 	0.66645 	-0.41950 	2.06520 	1.94000 	1.27935 	0.45390 	2.00425 	1.76260 	1.29220 	1.14715 	0.52665 
-2.67515 	-2.53525 	-2.39200 	-1.87640 	-1.53370 	-1.01055 	-2.13980 	-1.65675 	-0.99720 	-0.98585 	-0.72945 	-0.54135 	-0.06145 	-0.79215 	0.94510 	0.96145 	0.70110 	-0.31990 	2.07705 	1.95440 	1.30825 	0.52235 	2.00340 	1.77375 	1.33470 	1.16095 	0.54645 
-2.64220 	-2.49300 	-2.36375 	-1.85360 	-1.50510 	-0.95945 	-2.10205 	-1.63990 	-0.96690 	-0.92930 	-0.69515 	-0.51235 	-0.02665 	-0.76690 	0.96070 	0.96800 	0.72925 	-0.22415 	2.08245 	1.96290 	1.33190 	0.58775 	1.99665 	1.78000 	1.37145 	1.17120 	0.56410 
-2.61495 	-2.45865 	-2.33955 	-1.83475 	-1.48320 	-0.91210 	-2.06890 	-1.62770 	-0.93920 	-0.87270 	-0.66690 	-0.49095 	0.00435 	-0.74200 	0.96975 	0.96735 	0.75090 	-0.13345 	2.08145 	1.96560 	1.35040 	0.64950 	1.98410 	1.78135 	1.40190 	1.17735 	0.57880 
-2.59305 	-2.43320 	-2.31885 	-1.81860 	-1.46590 	-0.86925 	-2.03960 	-1.61875 	-0.91310 	-0.81660 	-0.64425 	-0.47610 	0.03165 	-0.71650 	0.97245 	0.96015 	0.76630 	-0.04745 	2.07445 	1.96275 	1.36385 	0.70725 	1.96605 	1.77805 	1.42575 	1.17925 	0.59000 
-2.57580 	-2.41700 	-2.30065 	-1.80370 	-1.45125 	-0.83105 	-2.01315 	-1.61170 	-0.88730 	-0.76140 	-0.62640 	-0.46650 	0.05555 	-0.68885 	0.96925 	0.94710 	0.77605 	0.03470 	2.06180 	1.95475 	1.37270 	0.76140 	1.94305 	1.77050 	1.44345 	1.17675 	0.59735 
-2.56190 	-2.40930 	-2.28395 	-1.78850 	-1.43725 	-0.79705 	-1.98860 	-1.60475 	-0.86040 	-0.70700 	-0.61240 	-0.46080 	0.07645 	-0.65745 	0.96075 	0.92900 	0.78075 	0.11455 	2.04420 	1.94230 	1.37760 	0.81235 	1.91570 	1.75915 	1.45555 	1.16980 	0.60055 
-2.54985 	-2.40855 	-2.26735 	-1.77175 	-1.42230 	-0.76630 	-1.96475 	-1.59680 	-0.83120 	-0.65310 	-0.60125 	-0.45775 	0.09505 	-0.62075 	0.94770 	0.90695 	0.78150 	0.19345 	2.02245 	1.92595 	1.37910 	0.86085 	1.88460 	1.74465 	1.46295 	1.15850 	0.59965 
-2.53835 	-2.41255 	-2.24970 	-1.75240 	-1.40550 	-0.73770 	-1.94060 	-1.58655 	-0.79860 	-0.59900 	-0.59195 	-0.45635 	0.11195 	-0.57785 	0.93070 	0.88175 	0.77905 	0.27250 	1.99705 	1.90630 	1.37775 	0.90730 	1.85010 	1.72730 	1.46645 	1.14300 	0.59425 
-2.52605 	-2.41880 	-2.23005 	-1.73000 	-1.38630 	-0.71020 	-1.91540 	-1.57350 	-0.76210 	-0.54395 	-0.58385 	-0.45610 	0.12780 	-0.52825 	0.91035 	0.85405 	0.77420 	0.35205 	1.96860 	1.88365 	1.37375 	0.95190 	1.81235 	1.70730 	1.46685 	1.12300 	0.58420 
-2.51205 	-2.42455 	-2.20780 	-1.70440 	-1.36515 	-0.68285 	-1.88875 	-1.55720 	-0.72150 	-0.48730 	-0.57645 	-0.45690 	0.14340 	-0.47195 	0.88680 	0.82425 	0.76750 	0.43200 	1.93705 	1.85815 	1.36720 	0.99450 	1.77110 	1.68435 	1.46460 	1.09845 	0.56920 
-2.49575 	-2.42715 	-2.18260 	-1.67615 	-1.34300 	-0.65510 	-1.86060 	-1.53780 	-0.67745 	-0.42875 	-0.56970 	-0.45875 	0.15895 	-0.40950 	0.86025 	0.79230 	0.75890 	0.51170 	1.90240 	1.82965 	1.35770 	1.03470 	1.72590 	1.65815 	1.46000 	1.06890 	0.54880 
-2.47695 	-2.42460 	-2.15455 	-1.64620 	-1.32125 	-0.62650 	-1.83110 	-1.51590 	-0.63110 	-0.36820 	-0.56375 	-0.46215 	0.17460 	-0.34155 	0.83045 	0.75810 	0.74855 	0.59000 	1.86420 	1.79770 	1.34480 	1.07180 	1.67615 	1.62795 	1.45300 	1.03395 	0.52275 
-2.45590 	-2.41520 	-2.12420 	-1.61570 	-1.30175 	-0.59755 	-1.80095 	-1.49235 	-0.58445 	-0.30650 	-0.55905 	-0.46755 	0.19000 	-0.26920 	0.79710 	0.72120 	0.73605 	0.66540 	1.82190 	1.76175 	1.32775 	1.10485 	1.62090 	1.59310 	1.44340 	0.99320 	0.49095 
-2.43305 	-2.39810 	-2.09220 	-1.58605 	-1.28605 	-0.56880 	-1.77080 	-1.46805 	-0.53980 	-0.24460 	-0.55620 	-0.47535 	0.20470 	-0.19355 	0.75980 	0.68115 	0.72100 	0.73620 	1.77475 	1.72105 	1.30590 	1.13275 	1.55960 	1.55290 	1.43060 	0.94630 	0.45350 
-2.40905 	-2.37305 	-2.05935 	-1.55835 	-1.27540 	-0.54130 	-1.74135 	-1.44405 	-0.49955 	-0.18385 	-0.55575 	-0.48585 	0.21795 	-0.11590 	0.71825 	0.63765 	0.70320 	0.80070 	1.72235 	1.67495 	1.27865 	1.15455 	1.49155 	1.50680 	1.41415 	0.89305 	0.41080 
-2.38445 	-2.34045 	-2.02635 	-1.53355 	-1.27070 	-0.51595 	-1.71330 	-1.42115 	-0.46590 	-0.12585 	-0.55800 	-0.49905 	0.22895 	-0.03755 	0.67235 	0.59055 	0.68230 	0.85760 	1.66420 	1.62305 	1.24565 	1.16955 	1.41655 	1.45460 	1.39350 	0.83380 	0.36360 
-2.36000 	-2.30145 	-1.99395 	-1.51220 	-1.27210 	-0.49380 	-1.68715 	-1.40025 	-0.44075 	-0.07235 	-0.56345 	-0.51520 	0.23665 	0.03995 	0.62205 	0.53970 	0.65815 	0.90575 	1.60005 	1.56505 	1.20675 	1.17730 	1.33450 	1.39600 	1.36830 	0.76890 	0.31270 
-2.33610 	-2.25760 	-1.96275 	-1.49475 	-1.27965 	-0.47550 	-1.66335 	-1.38190 	-0.42535 	-0.02505 	-0.57225 	-0.53415 	0.24015 	0.11490 	0.56740 	0.48535 	0.63085 	0.94435 	1.52985 	1.50080 	1.16195 	1.17760 	1.24570 	1.33140 	1.33825 	0.69900 	0.25925 
-2.31335 	-2.21095 	-1.93330 	-1.48120 	-1.29275 	-0.46200 	-1.64230 	-1.36670 	-0.42040 	0.01455 	-0.58465 	-0.55595 	0.23850 	0.18525 	0.50845 	0.42765 	0.60030 	0.97285 	1.45365 	1.43025 	1.11140 	1.17065 	1.15065 	1.26075 	1.30325 	0.62505 	0.20440 
-2.29205 	-2.16395 	-1.90605 	-1.47125 	-1.31050 	-0.45380 	-1.62410 	-1.35460 	-0.42570 	0.04560 	-0.60060 	-0.58040 	0.23125 	0.24910 	0.44540 	0.36670 	0.56665 	0.99105 	1.37170 	1.35355 	1.05545 	1.15685 	1.05000 	1.18470 	1.26335 	0.54795 	0.14930 
-2.27220 	-2.11885 	-1.88095 	-1.46400 	-1.33145 	-0.45140 	-1.60860 	-1.34520 	-0.44025 	0.06770 	-0.62000 	-0.60695 	0.21855 	0.30465 	0.37860 	0.30305 	0.53010 	0.99910 	1.28450 	1.27135 	0.99475 	1.13705 	0.94485 	1.10375 	1.21865 	0.46895 	0.09540 
-2.25360 	-2.07750 	-1.85775 	-1.45850 	-1.35400 	-0.45470 	-1.59530 	-1.33775 	-0.46230 	0.08075 	-0.64235 	-0.63485 	0.20090 	0.35040 	0.30855 	0.23755 	0.49125 	0.99765 	1.19295 	1.18445 	0.93005 	1.11220 	0.83650 	1.01870 	1.16970 	0.38950 	0.04400 
-2.23575 	-2.04160 	-1.83615 	-1.45335 	-1.37600 	-0.46365 	-1.58355 	-1.33110 	-0.48980 	0.08465 	-0.66690 	-0.66305 	0.17945 	0.38525 	0.23615 	0.17125 	0.45100 	0.98770 	1.09820 	1.09410 	0.86245 	1.08350 	0.72635 	0.93050 	1.11705 	0.31100 	-0.00350 
-2.21810 	-2.01220 	-1.81550 	-1.44745 	-1.39580 	-0.47780 	-1.57260 	-1.32440 	-0.52020 	0.07915 	-0.69290 	-0.69035 	0.15555 	0.40870 	0.16225 	0.10525 	0.41000 	0.97060 	1.00145 	1.00170 	0.79305 	1.05220 	0.61615 	0.84035 	1.06155 	0.23490 	-0.04600 
-2.20005 	-1.98990 	-1.79550 	-1.43995 	-1.41190 	-0.49665 	-1.56200 	-1.31685 	-0.55150 	0.06365 	-0.71960 	-0.71570 	0.13020 	0.42045 	0.08770 	0.04060 	0.36915 	0.94775 	0.90390 	0.90860 	0.72295 	1.01945 	0.50725 	0.74935 	1.00385 	0.16230 	-0.08250 
-2.18150 	-1.97505 	-1.77610 	-1.43045 	-1.42325 	-0.51985 	-1.55150 	-1.30855 	-0.58210 	0.03775 	-0.74665 	-0.73865 	0.10400 	0.42085 	0.01310 	-0.02200 	0.32900 	0.92070 	0.80645 	0.81575 	0.65290 	0.98630 	0.40075 	0.65815 	0.94460 	0.09385 	-0.11275 
-2.16240 	-1.96730 	-1.75745 	-1.41910 	-1.42935 	-0.54690 	-1.54140 	-1.30000 	-0.61110 	0.00080 	-0.77405 	-0.75910 	0.07725 	0.41070 	-0.06135 	-0.08220 	0.28990 	0.89085 	0.70965 	0.72410 	0.58330 	0.95365 	0.29760 	0.56755 	0.88420 	0.02995 	-0.13665 
-2.14295 	-1.96595 	-1.73990 	-1.40630 	-1.42980 	-0.57710 	-1.53205 	-1.29210 	-0.63775 	-0.04720 	-0.80210 	-0.77765 	0.05000 	0.39160 	-0.13550 	-0.14020 	0.25200 	0.85930 	0.61390 	0.63395 	0.51450 	0.92205 	0.19815 	0.47810 	0.82315 	-0.02940 	-0.15455 
-2.12350 	-1.96970 	-1.72380 	-1.39250 	-1.42460 	-0.60945 	-1.52415 	-1.28600 	-0.66155 	-0.10575 	-0.83120 	-0.79520 	0.02210 	0.36540 	-0.20950 	-0.19635 	0.21535 	0.82720 	0.51945 	0.54570 	0.44665 	0.89210 	0.10270 	0.39020 	0.76165 	-0.08455 	-0.16710 
-2.10445 	-1.97685 	-1.70950 	-1.37815 	-1.41375 	-0.64305 	-1.51820 	-1.28265 	-0.68170 	-0.17340 	-0.86180 	-0.81255 	-0.00625 	0.33435 	-0.28340 	-0.25105 	0.17995 	0.79525 	0.42635 	0.45960 	0.37995 	0.86380 	0.01125 	0.30425 	0.70000 	-0.13560 	-0.17525 
-2.08635 	-1.98525 	-1.69710 	-1.36380 	-1.39735 	-0.67650 	-1.51450 	-1.28285 	-0.69770 	-0.24820 	-0.89425 	-0.83065 	-0.03480 	0.30070 	-0.35720 	-0.30485 	0.14565 	0.76420 	0.33475 	0.37580 	0.31445 	0.83735 	-0.07625 	0.22065 	0.63845 	-0.18300 	-0.18000 
-2.06965 	-1.99280 	-1.68665 	-1.34975 	-1.37590 	-0.70840 	-1.51345 	-1.28740 	-0.70930 	-0.32750 	-0.92880 	-0.85025 	-0.06330 	0.26660 	-0.43095 	-0.35820 	0.11210 	0.73445 	0.24490 	0.29450 	0.25035 	0.81260 	-0.15975 	0.13980 	0.57725 	-0.22685 	-0.18195 
-2.05460 	-1.99770 	-1.67830 	-1.33655 	-1.35030 	-0.73730 	-1.51530 	-1.29660 	-0.71660 	-0.40830 	-0.96555 	-0.87205 	-0.09170 	0.23355 	-0.50440 	-0.41130 	0.07925 	0.70650 	0.15715 	0.21585 	0.18790 	0.78960 	-0.23925 	0.06220 	0.51680 	-0.26715 	-0.18180 
-2.04145 	-1.99820 	-1.67185 	-1.32465 	-1.32165 	-0.76145 	-1.51990 	-1.31085 	-0.72020 	-0.48710 	-1.00445 	-0.89655 	-0.12000 	0.20270 	-0.57740 	-0.46430 	0.04685 	0.68085 	0.07180 	0.14015 	0.12745 	0.76840 	-0.31445 	-0.01185 	0.45765 	-0.30365 	-0.17970 
-2.02970 	-1.99300 	-1.66700 	-1.31430 	-1.29110 	-0.77940 	-1.52705 	-1.33000 	-0.72070 	-0.56030 	-1.04505 	-0.92395 	-0.14845 	0.17435 	-0.64925 	-0.51680 	0.01520 	0.65810 	-0.01040 	0.06790 	0.06955 	0.74920 	-0.38490 	-0.08155 	0.40035 	-0.33590 	-0.17580 
-2.01880 	-1.98120 	-1.66310 	-1.30540 	-1.25970 	-0.78975 	-1.53615 	-1.35330 	-0.71860 	-0.62430 	-1.08645 	-0.95385 	-0.17740 	0.14840 	-0.71910 	-0.56805 	-0.01515 	0.63905 	-0.08865 	-0.00025 	0.01490 	0.73235 	-0.44995 	-0.14630 	0.34565 	-0.36350 	-0.16995 
-2.00780 	-1.96240 	-1.65935 	-1.29745 	-1.22810 	-0.79180 	-1.54610 	-1.37955 	-0.71425 	-0.67600 	-1.12745 	-0.98520 	-0.20730 	0.12425 	-0.78595 	-0.61695 	-0.04355 	0.62450 	-0.16190 	-0.06340 	-0.03580 	0.71790 	-0.50895 	-0.20530 	0.29440 	-0.38590 	-0.16230 
-1.99590 	-1.93700 	-1.65495 	-1.28995 	-1.19730 	-0.78550 	-1.55595 	-1.40700 	-0.70815 	-0.71320 	-1.16670 	-1.01635 	-0.23845 	0.10125 	-0.84860 	-0.66220 	-0.06925 	0.61520 	-0.22905 	-0.12080 	-0.08170 	0.70555 	-0.56115 	-0.25825 	0.24710 	-0.40310 	-0.15310 
-1.98260 	-1.90630 	-1.64950 	-1.28220 	-1.16825 	-0.77180 	-1.56460 	-1.43380 	-0.70115 	-0.73500 	-1.20280 	-1.04535 	-0.27115 	0.07850 	-0.90600 	-0.70265 	-0.09155 	0.61125 	-0.28935 	-0.17170 	-0.12220 	0.69465 	-0.60620 	-0.30470 	0.20430 	-0.41530 	-0.14300 
-1.96805 	-1.87235 	-1.64270 	-1.27390 	-1.14205 	-0.75240 	-1.57125 	-1.45805 	-0.69450 	-0.74185 	-1.23480 	-1.07010 	-0.30555 	0.05530 	-0.95740 	-0.73705 	-0.11005 	0.61195 	-0.34220 	-0.21575 	-0.15725 	0.68390 	-0.64405 	-0.34490 	0.16585 	-0.42320 	-0.13315 
-1.95255 	-1.83770 	-1.63470 	-1.26500 	-1.11975 	-0.72920 	-1.57545 	-1.47860 	-0.68965 	-0.73510 	-1.26195 	-1.08895 	-0.34155 	0.03120 	-1.00235 	-0.76480 	-0.12495 	0.61575 	-0.38755 	-0.25305 	-0.18695 	0.67165 	-0.67485 	-0.37910 	0.13155 	-0.42775 	-0.12465 
-1.93685 	-1.80525 	-1.62585 	-1.25565 	-1.10210 	-0.70440 	-1.57715 	-1.49460 	-0.68805 	-0.71740 	-1.28410 	-1.10055 	-0.37900 	0.00610 	-1.04080 	-0.78570 	-0.13660 	0.62040 	-0.42540 	-0.28375 	-0.21195 	0.65630 	-0.69905 	-0.40820 	0.10080 	-0.43000 	-0.11880 
-1.92185 	-1.77760 	-1.61670 	-1.24615 	-1.08940 	-0.67960 	-1.57660 	-1.50590 	-0.69105 	-0.69145 	-1.30155 	-1.10435 	-0.41735 	-0.01960 	-1.07295 	-0.80000 	-0.14560 	0.62295 	-0.45620 	-0.30845 	-0.23305 	0.63615 	-0.71710 	-0.43290 	0.07295 	-0.43095 	-0.11650 
-1.90820 	-1.75700 	-1.60780 	-1.23675 	-1.08175 	-0.65615 	-1.57430 	-1.51300 	-0.69950 	-0.66055 	-1.31480 	-1.10040 	-0.45620 	-0.04540 	-1.09930 	-0.80805 	-0.15280 	0.62025 	-0.48045 	-0.32775 	-0.25110 	0.61010 	-0.72945 	-0.45405 	0.04720 	-0.43120 	-0.11850 
-1.89660 	-1.74485 	-1.59965 	-1.22805 	-1.07875 	-0.63495 	-1.57085 	-1.51655 	-0.71380 	-0.62785 	-1.32460 	-1.08930 	-0.49485 	-0.07085 	-1.12055 	-0.81075 	-0.15890 	0.60935 	-0.49850 	-0.34210 	-0.26685 	0.57745 	-0.73630 	-0.47215 	0.02300 	-0.43120 	-0.12475 
-1.88730 	-1.74185 	-1.59260 	-1.22015 	-1.08025 	-0.61680 	-1.56710 	-1.51750 	-0.73375 	-0.59630 	-1.33170 	-1.07185 	-0.53245 	-0.09590 	-1.13705 	-0.80880 	-0.16470 	0.58760 	-0.51080 	-0.35195 	-0.28105 	0.53820 	-0.73770 	-0.48760 	-0.00010 	-0.43090 	-0.13490 
-1.88045 	-1.74770 	-1.58700 	-1.21370 	-1.08620 	-0.60255 	-1.56355 	-1.51680 	-0.75845 	-0.56885 	-1.33680 	-1.04930 	-0.56815 	-0.12100 	-1.14945 	-0.80295 	-0.17070 	0.55315 	-0.51765 	-0.35755 	-0.29400 	0.49265 	-0.73380 	-0.50055 	-0.02230 	-0.43015 	-0.14820 
-1.87610 	-1.76135 	-1.58310 	-1.20905 	-1.09670 	-0.59335 	-1.56080 	-1.51530 	-0.78690 	-0.54795 	-1.34060 	-1.02305 	-0.60080 	-0.14680 	-1.15815 	-0.79400 	-0.17760 	0.50500 	-0.51915 	-0.35895 	-0.30600 	0.44160 	-0.72435 	-0.51085 	-0.04385 	-0.42845 	-0.16375 
-1.87420 	-1.78135 	-1.58110 	-1.20665 	-1.11210 	-0.59040 	-1.55945 	-1.51390 	-0.81785 	-0.53545 	-1.34375 	-0.99480 	-0.62950 	-0.17435 	-1.16355 	-0.78280 	-0.18590 	0.44320 	-0.51570 	-0.35640 	-0.31695 	0.38595 	-0.70950 	-0.51840 	-0.06470 	-0.42545 	-0.18060 
-1.87460 	-1.80555 	-1.58130 	-1.20720 	-1.13270 	-0.59465 	-1.56010 	-1.51360 	-0.85020 	-0.53230 	-1.34705 	-0.96655 	-0.65370 	-0.20460 	-1.16630 	-0.77015 	-0.19625 	0.36835 	-0.50760 	-0.35000 	-0.32705 	0.32665 	-0.68940 	-0.52305 	-0.08490 	-0.42075 	-0.19800 
-1.87730 	-1.83195 	-1.58410 	-1.21120 	-1.15880 	-0.60680 	-1.56335 	-1.51535 	-0.88315 	-0.53860 	-1.35140 	-0.94055 	-0.67320 	-0.23860 	-1.16705 	-0.75725 	-0.20920 	0.28205 	-0.49545 	-0.34020 	-0.33630 	0.26475 	-0.66450 	-0.52475 	-0.10430 	-0.41405 	-0.21520 
-1.88220 	-1.85840 	-1.58970 	-1.21910 	-1.19045 	-0.62675 	-1.56960 	-1.52005 	-0.91610 	-0.55340 	-1.35765 	-0.91905 	-0.68830 	-0.27695 	-1.16635 	-0.74520 	-0.22520 	0.18650 	-0.47975 	-0.32740 	-0.34470 	0.20125 	-0.63525 	-0.52340 	-0.12285 	-0.40495 	-0.23155 
-1.88905 	-1.88265 	-1.59815 	-1.23095 	-1.22685 	-0.65365 	-1.57905 	-1.52825 	-0.94855 	-0.57505 	-1.36630 	-0.90395 	-0.69935 	-0.31980 	-1.16455 	-0.73475 	-0.24425 	0.08480 	-0.46095 	-0.31170 	-0.35210 	0.13740 	-0.60205 	-0.51850 	-0.13980 	-0.39325 	-0.24645 
-1.89735 	-1.90295 	-1.60925 	-1.24645 	-1.26690 	-0.68585 	-1.59150 	-1.53985 	-0.97985 	-0.60175 	-1.37745 	-0.89635 	-0.70690 	-0.36650 	-1.16165 	-0.72650 	-0.26595 	-0.01950 	-0.43915 	-0.29335 	-0.35815 	0.07440 	-0.56510 	-0.50970 	-0.15460 	-0.37830 	-0.25885 
-1.90650 	-1.91765 	-1.62230 	-1.26485 	-1.30910 	-0.72130 	-1.60635 	-1.55420 	-1.00945 	-0.63140 	-1.39065 	-0.89655 	-0.71140 	-0.41590 	-1.15735 	-0.72035 	-0.28980 	-0.12265 	-0.41430 	-0.27200 	-0.36245 	0.01360 	-0.52430 	-0.49610 	-0.16605 	-0.35925 	-0.26765 
-1.91575 	-1.92575 	-1.63655 	-1.28540 	-1.35190 	-0.75785 	-1.62275 	-1.57040 	-1.03675 	-0.66215 	-1.40515 	-0.90395 	-0.71315 	-0.46620 	-1.15085 	-0.71595 	-0.31535 	-0.22120 	-0.38615 	-0.24750 	-0.36475 	-0.04380 	-0.47945 	-0.47695 	-0.17310 	-0.33550 	-0.27165 
-1.92440 	-1.92700 	-1.65135 	-1.30715 	-1.39415 	-0.79380 	-1.63970 	-1.58710 	-1.06165 	-0.69225 	-1.41995 	-0.91725 	-0.71275 	-0.51555 	-1.14145 	-0.71270 	-0.34210 	-0.31220 	-0.35440 	-0.21960 	-0.36480 	-0.09665 	-0.43025 	-0.45140 	-0.17470 	-0.30615 	-0.26945 
-1.93195 	-1.92185 	-1.66605 	-1.32960 	-1.43510 	-0.82770 	-1.65620 	-1.60320 	-1.08430 	-0.72065 	-1.43375 	-0.93460 	-0.71060 	-0.56215 	-1.12825 	-0.70980 	-0.36945 	-0.39340 	-0.31865 	-0.18785 	-0.36240 	-0.14390 	-0.37640 	-0.41890 	-0.16975 	-0.27055 	-0.26000 
-1.93810 	-1.91155 	-1.68025 	-1.35225 	-1.47440 	-0.85885 	-1.67155 	-1.61765 	-1.10510 	-0.74660 	-1.44565 	-0.95380 	-0.70705 	-0.60415 	-1.11040 	-0.70625 	-0.39670 	-0.46345 	-0.27870 	-0.15205 	-0.35745 	-0.18465 	-0.31760 	-0.37900 	-0.15745 	-0.22830 	-0.24255 
-1.94285 	-1.89800 	-1.69375 	-1.37495 	-1.51215 	-0.88675 	-1.68535 	-1.62990 	-1.12490 	-0.77025 	-1.45470 	-0.97300 	-0.70275 	-0.64030 	-1.08730 	-0.70105 	-0.42310 	-0.52145 	-0.23435 	-0.11200 	-0.34970 	-0.21810 	-0.25370 	-0.33145 	-0.13710 	-0.17920 	-0.21660 
-1.94645 	-1.88350 	-1.70685 	-1.39790 	-1.54865 	-0.91115 	-1.69730 	-1.63985 	-1.14480 	-0.79255 	-1.46030 	-0.99035 	-0.69835 	-0.66950 	-1.05850 	-0.69345 	-0.44770 	-0.56715 	-0.18555 	-0.06755 	-0.33910 	-0.24355 	-0.18455 	-0.27625 	-0.10850 	-0.12335 	-0.18225 
-1.94940 	-1.87055 	-1.71975 	-1.42145 	-1.58460 	-0.93215 	-1.70775 	-1.64795 	-1.16600 	-0.81510 	-1.46255 	-1.00490 	-0.69495 	-0.69115 	-1.02410 	-0.68290 	-0.46985 	-0.60055 	-0.13255 	-0.01885 	-0.32540 	-0.26090 	-0.11030 	-0.21385 	-0.07165 	-0.06135 	-0.14005 
-1.95235 	-1.86165 	-1.73330 	-1.44620 	-1.62080 	-0.95040 	-1.71725 	-1.65520 	-1.18955 	-0.83980 	-1.46160 	-1.01620 	-0.69390 	-0.70510 	-0.98460 	-0.66930 	-0.48910 	-0.62205 	-0.07585 	0.03345 	-0.30875 	-0.26995 	-0.03145 	-0.14505 	-0.02725 	0.00625 	-0.09110 
-1.95580 	-1.85905 	-1.74825 	-1.47285 	-1.65825 	-0.96695 	-1.72665 	-1.66280 	-1.21670 	-0.86850 	-1.45835 	-1.02495 	-0.69705 	-0.71145 	-0.94110 	-0.65310 	-0.50560 	-0.63210 	-0.01635 	0.08865 	-0.28955 	-0.27115 	0.05125 	-0.07090 	0.02370 	0.07820 	-0.03675 
-1.96040 	-1.86425 	-1.76520 	-1.50200 	-1.69760 	-0.98285 	-1.73685 	-1.67220 	-1.24810 	-0.90250 	-1.45380 	-1.03230 	-0.70590 	-0.71060 	-0.89470 	-0.63520 	-0.51980 	-0.63135 	0.04495 	0.14570 	-0.26840 	-0.26510 	0.13680 	0.00740 	0.07980 	0.15320 	0.02130 
-1.96650 	-1.87825 	-1.78485 	-1.53405 	-1.73930 	-0.99940 	-1.74865 	-1.68445 	-1.28415 	-0.94190 	-1.44910 	-1.03980 	-0.72155 	-0.70300 	-0.84710 	-0.61665 	-0.53245 	-0.62065 	0.10680 	0.20345 	-0.24585 	-0.25265 	0.22420 	0.08830 	0.13960 	0.22990 	0.08135 
-1.97415 	-1.90085 	-1.80725 	-1.56900 	-1.78310 	-1.01740 	-1.76275 	-1.70030 	-1.32495 	-0.98625 	-1.44520 	-1.04925 	-0.74450 	-0.68970 	-0.79970 	-0.59865 	-0.54440 	-0.60085 	0.16825 	0.26075 	-0.22265 	-0.23485 	0.31230 	0.17050 	0.20135 	0.30700 	0.14170 
-1.98335 	-1.93110 	-1.83265 	-1.60655 	-1.82850 	-1.03760 	-1.77950 	-1.72035 	-1.37050 	-1.03445 	-1.44315 	-1.06200 	-0.77470 	-0.67235 	-0.75390 	-0.58240 	-0.55630 	-0.57330 	0.22815 	0.31675 	-0.19935 	-0.21275 	0.40015 	0.25265 	0.26375 	0.38300 	0.20095 
-1.99400 	-1.96750 	-1.86090 	-1.64655 	-1.87490 	-1.06045 	-1.79920 	-1.74475 	-1.42055 	-1.08525 	-1.44355 	-1.07940 	-0.81145 	-0.65325 	-0.71095 	-0.56890 	-0.56880 	-0.53965 	0.28555 	0.37040 	-0.17670 	-0.18735 	0.48635 	0.33355 	0.32530 	0.45670 	0.25750 
-2.00630 	-2.00795 	-1.89200 	-1.68865 	-1.92205 	-1.08640 	-1.82220 	-1.77380 	-1.47505 	-1.13755 	-1.44715 	-1.10245 	-0.85375 	-0.63530 	-0.67175 	-0.55900 	-0.58235 	-0.50230 	0.33965 	0.42090 	-0.15515 	-0.15975 	0.56985 	0.41195 	0.38465 	0.52680 	0.31015 
-2.02030 	-2.05030 	-1.92590 	-1.73270 	-1.96955 	-1.11585 	-1.84865 	-1.80770 	-1.53365 	-1.19035 	-1.45450 	-1.13170 	-0.90070 	-0.62190 	-0.63725 	-0.55345 	-0.59715 	-0.46355 	0.38950 	0.46755 	-0.13545 	-0.13085 	0.64945 	0.48695 	0.44060 	0.59225 	0.35790 
-2.03625 	-2.09245 	-1.96270 	-1.77875 	-2.01740 	-1.14900 	-1.87875 	-1.84665 	-1.59570 	-1.24290 	-1.46605 	-1.16775 	-0.95160 	-0.61640 	-0.60805 	-0.55270 	-0.61360 	-0.42615 	0.43445 	0.50980 	-0.11800 	-0.10180 	0.72405 	0.55775 	0.49215 	0.65205 	0.40000 
-2.05430 	-2.13255 	-2.00240 	-1.82665 	-2.06560 	-1.18620 	-1.91265 	-1.89080 	-1.66020 	-1.29485 	-1.48215 	-1.21070 	-1.00580 	-0.62180 	-0.58445 	-0.55700 	-0.63195 	-0.39250 	0.47400 	0.54725 	-0.10310 	-0.07345 	0.79275 	0.62380 	0.53845 	0.70575 	0.43590 
-2.07480 	-2.16900 	-2.04515 	-1.87650 	-2.11390 	-1.22780 	-1.95045 	-1.94000 	-1.72585 	-1.34645 	-1.50310 	-1.26050 	-1.06300 	-0.64000 	-0.56665 	-0.56650 	-0.65230 	-0.36450 	0.50775 	0.57975 	-0.09100 	-0.04670 	0.85490 	0.68480 	0.57910 	0.75300 	0.46560 
-2.09805 	-2.20110 	-2.09100 	-1.92825 	-2.16235 	-1.27415 	-1.99210 	-1.99415 	-1.79125 	-1.39820 	-1.52900 	-1.31705 	-1.12295 	-0.67200 	-0.55475 	-0.58100 	-0.67470 	-0.34325 	0.53540 	0.60715 	-0.08155 	-0.02200 	0.91005 	0.74050 	0.61380 	0.79385 	0.48930 
-2.12430 	-2.22870 	-2.14025 	-1.98195 	-2.21080 	-1.32530 	-2.03765 	-2.05285 	-1.85505 	-1.45080 	-1.55995 	-1.37995 	-1.18550 	-0.71720 	-0.54865 	-0.60025 	-0.69900 	-0.32935 	0.55695 	0.62955 	-0.07450 	0.00040 	0.95810 	0.79105 	0.64275 	0.82870 	0.50730 
-2.15410 	-2.25255 	-2.19325 	-2.03775 	-2.25940 	-1.38095 	-2.08715 	-2.11595 	-1.91625 	-1.50480 	-1.59595 	-1.44860 	-1.25060 	-0.77375 	-0.54820 	-0.62385 	-0.72490 	-0.32260 	0.57235 	0.64715 	-0.06950 	0.02040 	0.99900 	0.83670 	0.66625 	0.85780 	0.52025 
-2.18775 	-2.27400 	-2.25040 	-2.09605 	-2.30850 	-1.44040 	-2.14065 	-2.18335 	-1.97395 	-1.56060 	-1.63685 	-1.52240 	-1.31775 	-0.83895 	-0.55315 	-0.65120 	-0.75165 	-0.32255 	0.58190 	0.66020 	-0.06600 	0.03820 	1.03300 	0.87765 	0.68490 	0.88155 	0.52840 
-2.22575 	-2.29515 	-2.31220 	-2.15715 	-2.35845 	-1.50280 	-2.19835 	-2.25475 	-2.02790 	-1.61835 	-1.68245 	-1.60060 	-1.38640 	-0.90985 	-0.56320 	-0.68165 	-0.77850 	-0.32835 	0.58580 	0.66885 	-0.06355 	0.05420 	1.06040 	0.91410 	0.69925 	0.90025 	0.53205 
-2.26840 	-2.31840 	-2.37920 	-2.22145 	-2.40985 	-1.56725 	-2.26035 	-2.33010 	-2.07790 	-1.67780 	-1.73245 	-1.68220 	-1.45550 	-0.98335 	-0.57795 	-0.71480 	-0.80455 	-0.33895 	0.58445 	0.67355 	-0.06170 	0.06870 	1.08160 	0.94620 	0.71000 	0.91400 	0.53145 
-2.31620 	-2.34655 	-2.45180 	-2.28950 	-2.46315 	-1.63300 	-2.32670 	-2.40890 	-2.12415 	-1.73890 	-1.78630 	-1.76635 	-1.52375 	-1.05690 	-0.59715 	-0.74980 	-0.82885 	-0.35320 	0.57830 	0.67450 	-0.06020 	0.08215 	1.09695 	0.97425 	0.71770 	0.92290 	0.52700 
