[Subject]	
[Date]	05/30/2016
[Time]	17:35:24
[Channels]	27
[Rate]	1000.000000
[Type]	Average
[Points]	1351
[Xmin]	-100.00000
[Sweeps]	5047
[Accepted]	189
[Rejected]	4858
[Domain]	Time
[Rows]	Points																									
[Electrode Labels]																											
[FP2]	        [AF4]	        [F2]	        [F4]	        [F6]	        [F8]	        [FC2]	        [FC4]	        [FC6]	        [FT8]	        [C2]	        [C4]	        [C6]	        [T8]	        [CP2]	        [CP4]	        [CP6]	        [TP8]	        [P2]	        [P4]	        [P6]	        [P8]	        [PO4]	        [PO6]	        [PO8]	        [O2]	        [CB2]	
[Electrode XUnits]																											
[Default]	[Default]	[Default]	[Default]	[Default]	[Default]	[Default]	[Default]	[Default]	[Default]	[Default]	[Default]	[Default]	[Default]	[Default]	[Default]	[Default]	[Default]	[Default]	[Default]	[Default]	[Default]	[Default]	[Default]	[Default]	[Default]	[Default]	
[Electrode YUnits]																											
[Default]	[Default]	[Default]	[Default]	[Default]	[Default]	[Default]	[Default]	[Default]	[Default]	[Default]	[Default]	[Default]	[Default]	[Default]	[Default]	[Default]	[Default]	[Default]	[Default]	[Default]	[Default]	[Default]	[Default]	[Default]	[Default]	[Default]	
[Average Data]
0.81375 	0.71440 	0.80945 	0.90660 	0.85375 	0.75185 	0.68475 	0.71645 	0.65835 	0.56520 	0.43040 	0.66470 	0.53260 	0.53580 	0.15750 	0.50635 	0.53540 	0.01425 	0.05030 	0.01090 	0.18785 	-0.03385 	-0.16820 	-0.08985 	-0.01300 	0.02280 	0.28415 
0.82620 	0.72295 	0.83020 	0.92860 	0.85850 	0.77455 	0.72090 	0.76870 	0.67970 	0.57140 	0.47470 	0.72555 	0.57630 	0.55315 	0.20415 	0.55720 	0.56880 	0.07815 	0.09890 	0.06760 	0.23825 	0.02505 	-0.11380 	-0.03625 	0.03955 	0.06680 	0.34445 
0.83450 	0.73295 	0.84890 	0.94810 	0.85885 	0.79055 	0.75475 	0.81785 	0.69855 	0.57405 	0.51690 	0.78040 	0.61410 	0.56950 	0.25070 	0.60515 	0.59830 	0.14560 	0.14875 	0.12505 	0.28875 	0.08290 	-0.05845 	0.01910 	0.09215 	0.11110 	0.40360 
0.83805 	0.74440 	0.86445 	0.96445 	0.85535 	0.79920 	0.78485 	0.86225 	0.71565 	0.57295 	0.55495 	0.82660 	0.64490 	0.58665 	0.29545 	0.64830 	0.62255 	0.21605 	0.19810 	0.18115 	0.33790 	0.13825 	-0.00390 	0.07445 	0.14315 	0.15405 	0.45960 
0.83645 	0.75680 	0.87585 	0.97695 	0.84865 	0.79965 	0.80955 	0.90020 	0.73165 	0.56760 	0.58695 	0.86185 	0.66800 	0.60550 	0.33645 	0.68475 	0.64070 	0.28825 	0.24495 	0.23405 	0.38405 	0.18990 	0.04785 	0.12785 	0.19065 	0.19385 	0.51020 
0.82930 	0.76930 	0.88200 	0.98460 	0.83930 	0.79145 	0.82730 	0.93020 	0.74685 	0.55720 	0.61120 	0.88450 	0.68335 	0.62580 	0.37200 	0.71280 	0.65205 	0.36000 	0.28720 	0.28165 	0.42555 	0.23645 	0.09505 	0.17735 	0.23280 	0.22870 	0.55310 
0.81615 	0.78055 	0.88205 	0.98660 	0.82770 	0.77435 	0.83705 	0.95100 	0.76085 	0.54175 	0.62640 	0.89310 	0.69110 	0.64655 	0.40030 	0.73110 	0.65650 	0.42845 	0.32330 	0.32240 	0.46085 	0.27695 	0.13595 	0.22105 	0.26770 	0.25675 	0.58585 
0.79720 	0.78910 	0.87505 	0.98215 	0.81400 	0.74895 	0.83780 	0.96160 	0.77300 	0.52145 	0.63160 	0.88740 	0.69190 	0.66595 	0.42040 	0.73890 	0.65415 	0.49065 	0.35170 	0.35505 	0.48895 	0.31050 	0.16930 	0.25735 	0.29390 	0.27660 	0.60635 
0.77260 	0.79350 	0.86090 	0.97090 	0.79840 	0.71655 	0.82925 	0.96165 	0.78235 	0.49750 	0.62660 	0.86765 	0.68670 	0.68215 	0.43180 	0.73605 	0.64555 	0.54410 	0.37175 	0.37910 	0.50920 	0.33670 	0.19440 	0.28510 	0.31025 	0.28705 	0.61320 
0.74285 	0.79245 	0.83960 	0.95290 	0.78110 	0.67870 	0.81185 	0.95110 	0.78800 	0.47115 	0.61195 	0.83530 	0.67655 	0.69310 	0.43465 	0.72340 	0.63155 	0.58700 	0.38340 	0.39455 	0.52155 	0.35555 	0.21125 	0.30395 	0.31640 	0.28785 	0.60575 
0.70895 	0.78490 	0.81170 	0.92875 	0.76240 	0.63755 	0.78635 	0.93080 	0.78940 	0.44415 	0.58850 	0.79235 	0.66285 	0.69720 	0.42985 	0.70220 	0.61310 	0.61860 	0.38715 	0.40210 	0.52640 	0.36750 	0.22035 	0.31410 	0.31275 	0.27955 	0.58445 
0.67180 	0.77020 	0.77825 	0.89930 	0.74260 	0.59495 	0.75405 	0.90210 	0.78615 	0.41795 	0.55805 	0.74180 	0.64650 	0.69340 	0.41865 	0.67425 	0.59120 	0.63965 	0.38420 	0.40300 	0.52470 	0.37335 	0.22310 	0.31635 	0.30025 	0.26315 	0.55060 
0.63275 	0.74820 	0.74030 	0.86590 	0.72205 	0.55260 	0.71655 	0.86670 	0.77825 	0.39435 	0.52245 	0.68650 	0.62855 	0.68145 	0.40285 	0.64165 	0.56685 	0.65195 	0.37600 	0.39860 	0.51735 	0.37435 	0.22095 	0.31205 	0.28050 	0.24030 	0.50630 
0.59310 	0.71900 	0.69925 	0.82975 	0.70105 	0.51205 	0.67545 	0.82645 	0.76585 	0.37500 	0.48365 	0.62960 	0.60980 	0.66225 	0.38420 	0.60645 	0.54105 	0.65830 	0.36415 	0.39055 	0.50560 	0.37190 	0.21580 	0.30285 	0.25550 	0.21305 	0.45420 
0.55405 	0.68330 	0.65640 	0.79210 	0.67980 	0.47470 	0.63235 	0.78315 	0.74920 	0.36165 	0.44370 	0.57370 	0.59105 	0.63760 	0.36435 	0.57060 	0.51465 	0.66205 	0.35040 	0.38035 	0.49070 	0.36765 	0.20935 	0.29060 	0.22750 	0.18350 	0.39700 
0.51680 	0.64230 	0.61285 	0.75395 	0.65825 	0.44165 	0.58870 	0.73835 	0.72870 	0.35545 	0.40430 	0.52095 	0.57320 	0.60980 	0.34480 	0.53575 	0.48835 	0.66625 	0.33620 	0.36940 	0.47375 	0.36320 	0.20330 	0.27715 	0.19890 	0.15380 	0.33770 
0.48210 	0.59735 	0.56975 	0.71600 	0.63620 	0.41345 	0.54560 	0.69340 	0.70435 	0.35650 	0.36680 	0.47290 	0.55690 	0.58125 	0.32690 	0.50305 	0.46300 	0.67320 	0.32270 	0.35885 	0.45595 	0.35985 	0.19885 	0.26440 	0.17200 	0.12585 	0.27890 
0.45050 	0.55025 	0.52765 	0.67855 	0.61320 	0.39000 	0.50405 	0.64935 	0.67625 	0.36360 	0.33235 	0.43055 	0.54295 	0.55385 	0.31155 	0.47365 	0.43925 	0.68415 	0.31100 	0.34980 	0.43845 	0.35870 	0.19705 	0.25380 	0.14860 	0.10105 	0.22295 
0.42205 	0.50270 	0.48720 	0.64170 	0.58885 	0.37055 	0.46450 	0.60710 	0.64460 	0.37425 	0.30180 	0.39485 	0.53170 	0.52890 	0.29950 	0.44840 	0.41815 	0.69920 	0.30190 	0.34300 	0.42240 	0.36070 	0.19860 	0.24675 	0.13040 	0.08075 	0.17175 
0.39650 	0.45640 	0.44870 	0.60555 	0.56270 	0.35390 	0.42745 	0.56725 	0.60960 	0.38565 	0.27575 	0.36615 	0.52355 	0.50680 	0.29145 	0.42805 	0.40075 	0.71755 	0.29595 	0.33900 	0.40920 	0.36630 	0.20370 	0.24420 	0.11830 	0.06555 	0.12670 
0.37355 	0.41305 	0.41220 	0.56990 	0.53460 	0.33865 	0.39320 	0.53030 	0.57170 	0.39495 	0.25450 	0.34475 	0.51845 	0.48730 	0.28775 	0.41310 	0.38805 	0.73820 	0.29355 	0.33840 	0.39985 	0.37585 	0.21245 	0.24675 	0.11300 	0.05595 	0.08860 
0.35250 	0.37390 	0.37775 	0.53475 	0.50450 	0.32360 	0.36195 	0.49660 	0.53170 	0.40045 	0.23825 	0.33060 	0.51625 	0.46970 	0.28865 	0.40395 	0.38080 	0.75970 	0.29490 	0.34140 	0.39535 	0.38950 	0.22460 	0.25455 	0.11450 	0.05190 	0.05775 
0.33290 	0.34010 	0.34530 	0.49980 	0.47250 	0.30785 	0.33365 	0.46610 	0.49040 	0.40160 	0.22680 	0.32325 	0.51630 	0.45345 	0.29395 	0.40035 	0.37935 	0.78090 	0.29985 	0.34795 	0.39625 	0.40680 	0.23975 	0.26755 	0.12260 	0.05305 	0.03415 
0.31405 	0.31235 	0.31450 	0.46500 	0.43865 	0.29080 	0.30820 	0.43855 	0.44865 	0.39870 	0.21975 	0.32190 	0.51805 	0.43820 	0.30340 	0.40200 	0.38350 	0.80095 	0.30805 	0.35765 	0.40260 	0.42705 	0.25725 	0.28500 	0.13665 	0.05880 	0.01730 
0.29560 	0.29075 	0.28505 	0.43010 	0.40315 	0.27220 	0.28525 	0.41340 	0.40685 	0.39265 	0.21635 	0.32525 	0.52050 	0.42400 	0.31620 	0.40785 	0.39225 	0.81890 	0.31885 	0.37000 	0.41395 	0.44900 	0.27615 	0.30620 	0.15575 	0.06830 	0.00650 
0.27700 	0.27495 	0.25675 	0.39480 	0.36570 	0.25185 	0.26420 	0.38970 	0.36520 	0.38465 	0.21565 	0.33195 	0.52265 	0.41085 	0.33130 	0.41675 	0.40425 	0.83395 	0.33135 	0.38395 	0.42900 	0.47110 	0.29555 	0.32975 	0.17860 	0.08045 	0.00055 
0.25800 	0.26410 	0.22900 	0.35870 	0.32625 	0.22995 	0.24445 	0.36650 	0.32355 	0.37560 	0.21665 	0.34035 	0.52325 	0.39895 	0.34765 	0.42720 	0.41780 	0.84525 	0.34450 	0.39840 	0.44645 	0.49140 	0.31430 	0.35425 	0.20370 	0.09400 	-0.00175 
0.23850 	0.25690 	0.20155 	0.32150 	0.28485 	0.20700 	0.22515 	0.34250 	0.28170 	0.36650 	0.21815 	0.34870 	0.52115 	0.38825 	0.36395 	0.43765 	0.43115 	0.85190 	0.35720 	0.41215 	0.46460 	0.50825 	0.33135 	0.37820 	0.22950 	0.10775 	-0.00195 
0.21845 	0.25195 	0.17410 	0.28315 	0.24210 	0.18360 	0.20570 	0.31665 	0.23970 	0.35800 	0.21925 	0.35545 	0.51535 	0.37860 	0.37895 	0.44680 	0.44285 	0.85300 	0.36855 	0.42425 	0.48180 	0.52030 	0.34580 	0.40015 	0.25485 	0.12065 	-0.00125 
0.19795 	0.24775 	0.14680 	0.24380 	0.19905 	0.16060 	0.18560 	0.28805 	0.19825 	0.35085 	0.21920 	0.35920 	0.50530 	0.36980 	0.39190 	0.45375 	0.45205 	0.84785 	0.37795 	0.43415 	0.49710 	0.52680 	0.35745 	0.41925 	0.27890 	0.13215 	-0.00045 
0.17755 	0.24290 	0.11985 	0.20415 	0.15730 	0.13890 	0.16480 	0.25660 	0.15840 	0.34545 	0.21755 	0.35915 	0.49115 	0.36160 	0.40230 	0.45810 	0.45860 	0.83590 	0.38530 	0.44155 	0.50975 	0.52785 	0.36640 	0.43500 	0.30135 	0.14200 	-0.00010 
0.15765 	0.23615 	0.09370 	0.16490 	0.11870 	0.11955 	0.14345 	0.22245 	0.12195 	0.34210 	0.21430 	0.35500 	0.47370 	0.35380 	0.40995 	0.45975 	0.46285 	0.81660 	0.39065 	0.44675 	0.51975 	0.52405 	0.37290 	0.44725 	0.32255 	0.15040 	-0.00015 
0.13870 	0.22660 	0.06885 	0.12700 	0.08490 	0.10345 	0.12170 	0.18650 	0.09025 	0.34080 	0.20960 	0.34655 	0.45410 	0.34620 	0.41485 	0.45900 	0.46575 	0.78965 	0.39425 	0.45000 	0.52730 	0.51635 	0.37765 	0.45615 	0.34270 	0.15760 	-0.00075 
0.12085 	0.21335 	0.04575 	0.09135 	0.05705 	0.09130 	0.10000 	0.14945 	0.06470 	0.34100 	0.20355 	0.33420 	0.43350 	0.33805 	0.41690 	0.45615 	0.46810 	0.75465 	0.39620 	0.45155 	0.53265 	0.50570 	0.38085 	0.46170 	0.36205 	0.16340 	-0.00210 
0.10405 	0.19580 	0.02435 	0.05815 	0.03555 	0.08340 	0.07840 	0.11240 	0.04600 	0.34190 	0.19600 	0.31820 	0.41295 	0.32870 	0.41605 	0.45120 	0.47055 	0.71145 	0.39635 	0.45145 	0.53595 	0.49310 	0.38260 	0.46370 	0.38045 	0.16760 	-0.00470 
0.08795 	0.17350 	0.00465 	0.02770 	0.01985 	0.07965 	0.05715 	0.07610 	0.03410 	0.34240 	0.18695 	0.29885 	0.39310 	0.31665 	0.41195 	0.44430 	0.47305 	0.65965 	0.39455 	0.44940 	0.53725 	0.47905 	0.38245 	0.46195 	0.39740 	0.16950 	-0.00900 
0.07225 	0.14655 	-0.01370 	-0.00030 	0.00895 	0.07960 	0.03615 	0.04110 	0.02820 	0.34180 	0.17625 	0.27670 	0.37410 	0.30050 	0.40450 	0.43520 	0.47535 	0.59935 	0.39025 	0.44515 	0.53625 	0.46395 	0.37995 	0.45605 	0.41240 	0.16855 	-0.01555 
0.05655 	0.11550 	-0.03095 	-0.02595 	0.00145 	0.08280 	0.01560 	0.00785 	0.02720 	0.33975 	0.16375 	0.25210 	0.35585 	0.27840 	0.39350 	0.42355 	0.47670 	0.53050 	0.38315 	0.43810 	0.53265 	0.44780 	0.37460 	0.44580 	0.42475 	0.16415 	-0.02445 
0.04085 	0.08125 	-0.04710 	-0.04945 	-0.00380 	0.08885 	-0.00440 	-0.02320 	0.02970 	0.33685 	0.14950 	0.22555 	0.33820 	0.24915 	0.37885 	0.40905 	0.47610 	0.45355 	0.37280 	0.42785 	0.52615 	0.43065 	0.36590 	0.43125 	0.43385 	0.15625 	-0.03550 
0.02510 	0.04535 	-0.06235 	-0.07085 	-0.00805 	0.09730 	-0.02360 	-0.05175 	0.03440 	0.33385 	0.13350 	0.19755 	0.32095 	0.21235 	0.36045 	0.39155 	0.47235 	0.36920 	0.35885 	0.41380 	0.51630 	0.41205 	0.35340 	0.41265 	0.43935 	0.14465 	-0.04840 
0.00950 	0.00945 	-0.07655 	-0.09000 	-0.01215 	0.10770 	-0.04175 	-0.07735 	0.04025 	0.33180 	0.11600 	0.16855 	0.30410 	0.16855 	0.33855 	0.37065 	0.46440 	0.27815 	0.34110 	0.39555 	0.50265 	0.39155 	0.33685 	0.39000 	0.44065 	0.12930 	-0.06280 
-0.00565 	-0.02480 	-0.08955 	-0.10675 	-0.01655 	0.11960 	-0.05835 	-0.09955 	0.04640 	0.33155 	0.09735 	0.13910 	0.28755 	0.11935 	0.31320 	0.34620 	0.45130 	0.18175 	0.31935 	0.37275 	0.48490 	0.36845 	0.31595 	0.36365 	0.43740 	0.11035 	-0.07840 
-0.02010 	-0.05585 	-0.10100 	-0.12060 	-0.02135 	0.13200 	-0.07290 	-0.11775 	0.05220 	0.33355 	0.07790 	0.10985 	0.27110 	0.06725 	0.28480 	0.31855 	0.43260 	0.08145 	0.29355 	0.34525 	0.46275 	0.34230 	0.29070 	0.33390 	0.42930 	0.08795 	-0.09520 
-0.03365 	-0.08195 	-0.11035 	-0.13100 	-0.02630 	0.14410 	-0.08470 	-0.13125 	0.05725 	0.33735 	0.05860 	0.08180 	0.25470 	0.01550 	0.25400 	0.28810 	0.40825 	-0.02085 	0.26410 	0.31330 	0.43635 	0.31270 	0.26135 	0.30130 	0.41625 	0.06265 	-0.11305 
-0.04580 	-0.10185 	-0.11675 	-0.13735 	-0.03035 	0.15490 	-0.09275 	-0.13920 	0.06125 	0.34190 	0.04035 	0.05620 	0.23815 	-0.03235 	0.22170 	0.25575 	0.37905 	-0.12265 	0.23180 	0.27785 	0.40630 	0.28000 	0.22890 	0.26665 	0.39875 	0.03530 	-0.13140 
-0.05595 	-0.11440 	-0.11925 	-0.13870 	-0.03240 	0.16355 	-0.09590 	-0.14070 	0.06450 	0.34540 	0.02455 	0.03435 	0.22145 	-0.07240 	0.18940 	0.22290 	0.34655 	-0.22080 	0.19805 	0.24015 	0.37375 	0.24495 	0.19475 	0.23120 	0.37795 	0.00730 	-0.14945 
-0.06335 	-0.11875 	-0.11660 	-0.13415 	-0.03105 	0.16945 	-0.09295 	-0.13475 	0.06735 	0.34610 	0.01280 	0.01780 	0.20480 	-0.10110 	0.15865 	0.19110 	0.31280 	-0.31210 	0.16465 	0.20210 	0.34040 	0.20930 	0.16080 	0.19685 	0.35565 	-0.01940 	-0.16565 
-0.06705 	-0.11435 	-0.10780 	-0.12290 	-0.02500 	0.17250 	-0.08275 	-0.12060 	0.07050 	0.34225 	0.00655 	0.00815 	0.18840 	-0.11505 	0.13105 	0.16215 	0.28040 	-0.39270 	0.13345 	0.16575 	0.30830 	0.17520 	0.12930 	0.16545 	0.33390 	-0.04285 	-0.17840 
-0.06620 	-0.10145 	-0.09200 	-0.10435 	-0.01330 	0.17305 	-0.06455 	-0.09790 	0.07480 	0.33275 	0.00700 	0.00635 	0.17235 	-0.11195 	0.10815 	0.13750 	0.25200 	-0.45930 	0.10635 	0.13300 	0.27940 	0.14505 	0.10235 	0.13875 	0.31465 	-0.06145 	-0.18630 
-0.06035 	-0.08085 	-0.06890 	-0.07865 	0.00415 	0.17160 	-0.03835 	-0.06705 	0.08090 	0.31700 	0.01490 	0.01270 	0.15680 	-0.09090 	0.09085 	0.11815 	0.22960 	-0.50900 	0.08470 	0.10530 	0.25535 	0.12060 	0.08170 	0.11815 	0.29935 	-0.07395 	-0.18840 
-0.04950 	-0.05410 	-0.03920 	-0.04660 	0.02680 	0.16895 	-0.00500 	-0.02940 	0.08895 	0.29510 	0.02995 	0.02660 	0.14120 	-0.05265 	0.07945 	0.10420 	0.21455 	-0.54035 	0.06905 	0.08345 	0.23700 	0.10300 	0.06820 	0.10410 	0.28845 	-0.08000 	-0.18490 
-0.03420 	-0.02360 	-0.00405 	-0.00985 	0.05325 	0.16585 	0.03400 	0.01290 	0.09850 	0.26780 	0.05130 	0.04670 	0.12485 	0.00025 	0.07340 	0.09515 	0.20685 	-0.55310 	0.05935 	0.06720 	0.22440 	0.09225 	0.06185 	0.09625 	0.28160 	-0.08025 	-0.17660 
-0.01560 	0.00795 	0.03460 	0.02940 	0.08150 	0.16270 	0.07635 	0.05710 	0.10825 	0.23625 	0.07725 	0.07085 	0.10640 	0.06355 	0.07150 	0.08975 	0.20555 	-0.54850 	0.05470 	0.05595 	0.21655 	0.08765 	0.06205 	0.09350 	0.27775 	-0.07575 	-0.16495 
0.00495 	0.03775 	0.07440 	0.06870 	0.10915 	0.15995 	0.11940 	0.10010 	0.11670 	0.20165 	0.10570 	0.09645 	0.08455 	0.13230 	0.07205 	0.08625 	0.20870 	-0.52890 	0.05365 	0.04825 	0.21200 	0.08760 	0.06725 	0.09435 	0.27515 	-0.06825 	-0.15200 
0.02600 	0.06335 	0.11275 	0.10520 	0.13375 	0.15765 	0.16035 	0.13875 	0.12205 	0.16510 	0.13430 	0.12080 	0.05805 	0.20080 	0.07335 	0.08275 	0.21370 	-0.49770 	0.05465 	0.04260 	0.20870 	0.09030 	0.07585 	0.09695 	0.27205 	-0.05955 	-0.13980 
0.04605 	0.08255 	0.14725 	0.13655 	0.15300 	0.15555 	0.19675 	0.17055 	0.12265 	0.12695 	0.16070 	0.14135 	0.02630 	0.26345 	0.07350 	0.07730 	0.21770 	-0.45900 	0.05590 	0.03730 	0.20450 	0.09385 	0.08590 	0.09945 	0.26660 	-0.05145 	-0.13020 
0.06380 	0.09420 	0.17590 	0.16080 	0.16510 	0.15345 	0.22630 	0.19350 	0.11755 	0.08730 	0.18295 	0.15590 	-0.01085 	0.31515 	0.07095 	0.06825 	0.21805 	-0.41675 	0.05575 	0.03070 	0.19750 	0.09645 	0.09575 	0.10035 	0.25765 	-0.04525 	-0.12460 
0.07825 	0.09765 	0.19695 	0.17645 	0.16880 	0.15095 	0.24740 	0.20645 	0.10625 	0.04610 	0.19935 	0.16275 	-0.05230 	0.35180 	0.06440 	0.05420 	0.21255 	-0.37445 	0.05295 	0.02165 	0.18595 	0.09700 	0.10375 	0.09845 	0.24420 	-0.04205 	-0.12355 
0.08845 	0.09300 	0.20940 	0.18260 	0.16345 	0.14755 	0.25890 	0.20895 	0.08860 	0.00365 	0.20865 	0.16080 	-0.09655 	0.37070 	0.05290 	0.03420 	0.19935 	-0.33485 	0.04645 	0.00890 	0.16850 	0.09435 	0.10885 	0.09305 	0.22610 	-0.04210 	-0.12715 
0.09375 	0.08105 	0.21235 	0.17880 	0.14905 	0.14255 	0.26020 	0.20115 	0.06505 	-0.03930 	0.20995 	0.14925 	-0.14140 	0.37045 	0.03580 	0.00740 	0.17730 	-0.29960 	0.03535 	-0.00810 	0.14425 	0.08795 	0.11035 	0.08375 	0.20355 	-0.04535 	-0.13465 
0.09355 	0.06265 	0.20570 	0.16490 	0.12610 	0.13520 	0.25110 	0.18335 	0.03615 	-0.08145 	0.20275 	0.12785 	-0.18480 	0.35105 	0.01285 	-0.02645 	0.14575 	-0.26985 	0.01930 	-0.02985 	0.11255 	0.07745 	0.10760 	0.07055 	0.17730 	-0.05145 	-0.14510 
0.08750 	0.03925 	0.18940 	0.14130 	0.09555 	0.12450 	0.23180 	0.15650 	0.00290 	-0.12110 	0.18685 	0.09665 	-0.22480 	0.31380 	-0.01585 	-0.06745 	0.10490 	-0.24615 	-0.00185 	-0.05645 	0.07345 	0.06275 	0.10060 	0.05380 	0.14800 	-0.05955 	-0.15710 
0.07535 	0.01205 	0.16400 	0.10875 	0.05865 	0.10980 	0.20295 	0.12150 	-0.03380 	-0.15650 	0.16255 	0.05605 	-0.26000 	0.26090 	-0.04990 	-0.11515 	0.05520 	-0.22880 	-0.02770 	-0.08765 	0.02720 	0.04400 	0.08940 	0.03400 	0.11675 	-0.06875 	-0.16935 
0.05715 	-0.01770 	0.13015 	0.06815 	0.01710 	0.09065 	0.16530 	0.07950 	-0.07280 	-0.18640 	0.13045 	0.00715 	-0.28980 	0.19480 	-0.08850 	-0.16870 	-0.00220 	-0.21795 	-0.05775 	-0.12280 	-0.02535 	0.02175 	0.07455 	0.01190 	0.08455 	-0.07795 	-0.18065 
0.03300 	-0.04890 	0.08885 	0.02075 	-0.02745 	0.06690 	0.11990 	0.03150 	-0.11315 	-0.21015 	0.09120 	-0.04905 	-0.31435 	0.11820 	-0.13075 	-0.22705 	-0.06565 	-0.21365 	-0.09125 	-0.16115 	-0.08305 	-0.00340 	0.05640 	-0.01195 	0.05235 	-0.08625 	-0.19005 
0.00325 	-0.08100 	0.04110 	-0.03215 	-0.07355 	0.03865 	0.06780 	-0.02130 	-0.15390 	-0.22805 	0.04585 	-0.11100 	-0.33440 	0.03355 	-0.17560 	-0.28885 	-0.13360 	-0.21560 	-0.12740 	-0.20180 	-0.14430 	-0.03085 	0.03580 	-0.03660 	0.02095 	-0.09305 	-0.19695 
-0.03155 	-0.11365 	-0.01205 	-0.08940 	-0.11990 	0.00605 	0.01010 	-0.07805 	-0.19455 	-0.24115 	-0.00465 	-0.17705 	-0.35110 	-0.05695 	-0.22205 	-0.35245 	-0.20420 	-0.22345 	-0.16530 	-0.24375 	-0.20735 	-0.05980 	0.01325 	-0.06165 	-0.00900 	-0.09780 	-0.20110 
-0.07085 	-0.14700 	-0.06955 	-0.14955 	-0.16570 	-0.03055 	-0.05215 	-0.13790 	-0.23480 	-0.25100 	-0.05925 	-0.24540 	-0.36595 	-0.15085 	-0.26905 	-0.41640 	-0.27570 	-0.23665 	-0.20400 	-0.28600 	-0.27030 	-0.08975 	-0.01040 	-0.08630 	-0.03695 	-0.10040 	-0.20240 
-0.11375 	-0.18130 	-0.13015 	-0.21135 	-0.21060 	-0.07060 	-0.11775 	-0.20000 	-0.27455 	-0.25920 	-0.11680 	-0.31440 	-0.38015 	-0.24610 	-0.31565 	-0.47900 	-0.34670 	-0.25415 	-0.24285 	-0.32745 	-0.33160 	-0.12010 	-0.03450 	-0.11030 	-0.06255 	-0.10080 	-0.20100 
-0.15925 	-0.21690 	-0.19270 	-0.27370 	-0.25465 	-0.11360 	-0.18565 	-0.26350 	-0.31395 	-0.26745 	-0.17620 	-0.38215 	-0.39470 	-0.34030 	-0.36105 	-0.53885 	-0.41610 	-0.27510 	-0.28100 	-0.36745 	-0.38975 	-0.15050 	-0.05840 	-0.13325 	-0.08555 	-0.09915 	-0.19735 
-0.20645 	-0.25450 	-0.25610 	-0.33550 	-0.29815 	-0.15890 	-0.25465 	-0.32755 	-0.35310 	-0.27730 	-0.23630 	-0.44720 	-0.41025 	-0.43140 	-0.40470 	-0.59495 	-0.48295 	-0.29845 	-0.31805 	-0.40515 	-0.44400 	-0.18080 	-0.08170 	-0.15510 	-0.10615 	-0.09580 	-0.19180 
-0.25440 	-0.29460 	-0.31925 	-0.39580 	-0.34170 	-0.20610 	-0.32365 	-0.39110 	-0.39205 	-0.29020 	-0.29605 	-0.50815 	-0.42695 	-0.51765 	-0.44595 	-0.64630 	-0.54645 	-0.32355 	-0.35345 	-0.44025 	-0.49390 	-0.21105 	-0.10420 	-0.17605 	-0.12475 	-0.09120 	-0.18530 
-0.30245 	-0.33775 	-0.38120 	-0.45390 	-0.38555 	-0.25500 	-0.39155 	-0.45295 	-0.43065 	-0.30735 	-0.35435 	-0.56410 	-0.44465 	-0.59760 	-0.48465 	-0.69245 	-0.60605 	-0.34980 	-0.38710 	-0.47255 	-0.53930 	-0.24115 	-0.12595 	-0.19655 	-0.14200 	-0.08620 	-0.17855 
-0.35005 	-0.38405 	-0.44105 	-0.50925 	-0.43005 	-0.30560 	-0.45725 	-0.51205 	-0.46880 	-0.32945 	-0.41025 	-0.61415 	-0.46290 	-0.67025 	-0.52030 	-0.73290 	-0.66100 	-0.37695 	-0.41865 	-0.50190 	-0.58040 	-0.27105 	-0.14705 	-0.21695 	-0.15860 	-0.08130 	-0.17220 
-0.39665 	-0.43350 	-0.49815 	-0.56125 	-0.47525 	-0.35795 	-0.51970 	-0.56730 	-0.50590 	-0.35680 	-0.46275 	-0.65800 	-0.48100 	-0.73485 	-0.55285 	-0.76740 	-0.71045 	-0.40485 	-0.44785 	-0.52810 	-0.61725 	-0.30080 	-0.16760 	-0.23750 	-0.17530 	-0.07710 	-0.16655 
-0.44190 	-0.48525 	-0.55155 	-0.60945 	-0.52070 	-0.41175 	-0.57790 	-0.61755 	-0.54130 	-0.38885 	-0.51100 	-0.69525 	-0.49835 	-0.79085 	-0.58165 	-0.79575 	-0.75365 	-0.43340 	-0.47430 	-0.55100 	-0.64980 	-0.33005 	-0.18760 	-0.25825 	-0.19290 	-0.07370 	-0.16155 
-0.48510 	-0.53815 	-0.60070 	-0.65345 	-0.56570 	-0.46640 	-0.63075 	-0.66230 	-0.57435 	-0.42465 	-0.55420 	-0.72605 	-0.51440 	-0.83805 	-0.60635 	-0.81765 	-0.78975 	-0.46230 	-0.49745 	-0.57005 	-0.67790 	-0.35870 	-0.20705 	-0.27910 	-0.21165 	-0.07135 	-0.15670 
-0.52565 	-0.59065 	-0.64465 	-0.69280 	-0.60925 	-0.52100 	-0.67740 	-0.70090 	-0.60415 	-0.46280 	-0.59175 	-0.75065 	-0.52890 	-0.87670 	-0.62640 	-0.83305 	-0.81825 	-0.49100 	-0.51680 	-0.58495 	-0.70140 	-0.38650 	-0.22575 	-0.29965 	-0.23195 	-0.06970 	-0.15135 
-0.56285 	-0.64065 	-0.68280 	-0.72685 	-0.65010 	-0.57445 	-0.71690 	-0.73300 	-0.62995 	-0.50165 	-0.62290 	-0.76925 	-0.54165 	-0.90710 	-0.64125 	-0.84190 	-0.83875 	-0.51910 	-0.53190 	-0.59530 	-0.72020 	-0.41345 	-0.24365 	-0.31955 	-0.25385 	-0.06855 	-0.14485 
-0.59580 	-0.68605 	-0.71420 	-0.75510 	-0.68670 	-0.62555 	-0.74860 	-0.75825 	-0.65090 	-0.53995 	-0.64720 	-0.78210 	-0.55285 	-0.92970 	-0.65050 	-0.84405 	-0.85110 	-0.54565 	-0.54225 	-0.60070 	-0.73410 	-0.43950 	-0.26055 	-0.33835 	-0.27725 	-0.06745 	-0.13645 
-0.62380 	-0.72450 	-0.73835 	-0.77700 	-0.71765 	-0.67310 	-0.77185 	-0.77625 	-0.66630 	-0.57640 	-0.66415 	-0.78920 	-0.56275 	-0.94480 	-0.65360 	-0.83945 	-0.85535 	-0.56930 	-0.54760 	-0.60075 	-0.74305 	-0.46455 	-0.27635 	-0.35570 	-0.30200 	-0.06595 	-0.12570 
-0.64625 	-0.75395 	-0.75450 	-0.79195 	-0.74160 	-0.71590 	-0.78615 	-0.78690 	-0.67565 	-0.61005 	-0.67340 	-0.79050 	-0.57170 	-0.95225 	-0.65015 	-0.82820 	-0.85180 	-0.58860 	-0.54765 	-0.59515 	-0.74705 	-0.48830 	-0.29080 	-0.37120 	-0.32760 	-0.06375 	-0.11210 
-0.66250 	-0.77270 	-0.76245 	-0.79995 	-0.75770 	-0.75280 	-0.79140 	-0.79040 	-0.67895 	-0.64045 	-0.67475 	-0.78615 	-0.58050 	-0.95145 	-0.63980 	-0.81035 	-0.84130 	-0.60175 	-0.54235 	-0.58380 	-0.74625 	-0.51045 	-0.30370 	-0.38445 	-0.35355 	-0.06045 	-0.09530 
-0.67230 	-0.77960 	-0.76215 	-0.80105 	-0.76565 	-0.78270 	-0.78780 	-0.78740 	-0.67655 	-0.66740 	-0.66835 	-0.77635 	-0.58985 	-0.94170 	-0.62265 	-0.78635 	-0.82485 	-0.60735 	-0.53195 	-0.56700 	-0.74105 	-0.53055 	-0.31505 	-0.39525 	-0.37955 	-0.05595 	-0.07550 
-0.67580 	-0.77440 	-0.75380 	-0.79595 	-0.76555 	-0.80475 	-0.77605 	-0.77920 	-0.66970 	-0.69070 	-0.65495 	-0.76190 	-0.60070 	-0.92250 	-0.59925 	-0.75710 	-0.80415 	-0.60475 	-0.51690 	-0.54520 	-0.73230 	-0.54855 	-0.32505 	-0.40405 	-0.40550 	-0.05050 	-0.05310 
-0.67350 	-0.75765 	-0.73830 	-0.78555 	-0.75805 	-0.81825 	-0.75735 	-0.76715 	-0.65975 	-0.71035 	-0.63565 	-0.74380 	-0.61370 	-0.89415 	-0.57045 	-0.72390 	-0.78140 	-0.59435 	-0.49820 	-0.51980 	-0.72125 	-0.56475 	-0.33440 	-0.41140 	-0.43175 	-0.04490 	-0.02930 
-0.66635 	-0.73080 	-0.71680 	-0.77105 	-0.74420 	-0.82330 	-0.73315 	-0.75310 	-0.64825 	-0.72635 	-0.61210 	-0.72330 	-0.62925 	-0.85770 	-0.53775 	-0.68855 	-0.75860 	-0.57765 	-0.47725 	-0.49215 	-0.70935 	-0.57970 	-0.34395 	-0.41870 	-0.45890 	-0.04045 	-0.00580 
-0.65520 	-0.69605 	-0.69075 	-0.75395 	-0.72530 	-0.82025 	-0.70515 	-0.73870 	-0.63650 	-0.73880 	-0.58585 	-0.70180 	-0.64720 	-0.81525 	-0.50295 	-0.65275 	-0.73795 	-0.55700 	-0.45555 	-0.46400 	-0.69830 	-0.59420 	-0.35505 	-0.42715 	-0.48770 	-0.03865 	0.01525 
-0.64140 	-0.65600 	-0.66175 	-0.73565 	-0.70305 	-0.81000 	-0.67515 	-0.72515 	-0.62555 	-0.74785 	-0.55880 	-0.68035 	-0.66720 	-0.76910 	-0.46780 	-0.61835 	-0.72105 	-0.53485 	-0.43465 	-0.43710 	-0.68950 	-0.60940 	-0.36885 	-0.43835 	-0.51900 	-0.04120 	0.03155 
-0.62585 	-0.61360 	-0.63135 	-0.71745 	-0.67925 	-0.79390 	-0.64465 	-0.71335 	-0.61600 	-0.75405 	-0.53240 	-0.65985 	-0.68855 	-0.72140 	-0.43410 	-0.58700 	-0.70940 	-0.51370 	-0.41595 	-0.41295 	-0.68425 	-0.62615 	-0.38620 	-0.45375 	-0.55355 	-0.04960 	0.04090 
-0.60955 	-0.57180 	-0.60110 	-0.70065 	-0.65590 	-0.77325 	-0.61510 	-0.70375 	-0.60875 	-0.75770 	-0.50795 	-0.64110 	-0.71100 	-0.67395 	-0.40340 	-0.55995 	-0.70390 	-0.49530 	-0.40075 	-0.39295 	-0.68340 	-0.64515 	-0.40805 	-0.47445 	-0.59195 	-0.06480 	0.04145 
-0.59350 	-0.53340 	-0.57245 	-0.68635 	-0.63485 	-0.74955 	-0.58780 	-0.69640 	-0.60435 	-0.75900 	-0.48640 	-0.62445 	-0.73430 	-0.62805 	-0.37710 	-0.53835 	-0.70515 	-0.48100 	-0.38995 	-0.37830 	-0.68775 	-0.66710 	-0.43480 	-0.50135 	-0.63460 	-0.08775 	0.03205 
-0.57835 	-0.50090 	-0.54655 	-0.67530 	-0.61785 	-0.72400 	-0.56365 	-0.69125 	-0.60350 	-0.75790 	-0.46860 	-0.61030 	-0.75855 	-0.58465 	-0.35605 	-0.52295 	-0.71350 	-0.47165 	-0.38450 	-0.36965 	-0.69775 	-0.69215 	-0.46670 	-0.53490 	-0.68150 	-0.11860 	0.01205 
-0.56490 	-0.47610 	-0.52440 	-0.66815 	-0.60600 	-0.69760 	-0.54350 	-0.68790 	-0.60670 	-0.75385 	-0.45500 	-0.59885 	-0.78390 	-0.54420 	-0.34105 	-0.51405 	-0.72860 	-0.46760 	-0.38470 	-0.36750 	-0.71355 	-0.72030 	-0.50370 	-0.57520 	-0.73220 	-0.15715 	-0.01850 
-0.55355 	-0.46000 	-0.50665 	-0.66480 	-0.59960 	-0.67140 	-0.52770 	-0.68585 	-0.61400 	-0.74660 	-0.44555 	-0.59020 	-0.81015 	-0.50730 	-0.33200 	-0.51160 	-0.74985 	-0.46905 	-0.39060 	-0.37180 	-0.73490 	-0.75105 	-0.54545 	-0.62180 	-0.78605 	-0.20255 	-0.05880 
-0.54445 	-0.45285 	-0.49350 	-0.66495 	-0.59835 	-0.64585 	-0.51610 	-0.68425 	-0.62490 	-0.73575 	-0.43995 	-0.58410 	-0.83655 	-0.47465 	-0.32850 	-0.51470 	-0.77585 	-0.47580 	-0.40170 	-0.38205 	-0.76095 	-0.78345 	-0.59090 	-0.67355 	-0.84170 	-0.25360 	-0.10770 
-0.53745 	-0.45365 	-0.48455 	-0.66760 	-0.60105 	-0.62150 	-0.50805 	-0.68200 	-0.63845 	-0.72135 	-0.43740 	-0.57975 	-0.86175 	-0.44705 	-0.32940 	-0.52210 	-0.80480 	-0.48770 	-0.41685 	-0.39700 	-0.79055 	-0.81655 	-0.63905 	-0.72885 	-0.89750 	-0.30855 	-0.16320 
-0.53210 	-0.46075 	-0.47900 	-0.67150 	-0.60610 	-0.59830 	-0.50255 	-0.67770 	-0.65310 	-0.70360 	-0.43640 	-0.57615 	-0.88385 	-0.42540 	-0.33310 	-0.53185 	-0.83430 	-0.50435 	-0.43450 	-0.41515 	-0.82200 	-0.84895 	-0.68805 	-0.78560 	-0.95140 	-0.36515 	-0.22295 
-0.52735 	-0.47165 	-0.47555 	-0.67485 	-0.61145 	-0.57595 	-0.49790 	-0.66975 	-0.66670 	-0.68255 	-0.43530 	-0.57180 	-0.90030 	-0.41040 	-0.33735 	-0.54155 	-0.86180 	-0.52490 	-0.45250 	-0.43430 	-0.85325 	-0.87910 	-0.73590 	-0.84120 	-1.00090 	-0.42060 	-0.28410 
-0.52195 	-0.48330 	-0.47245 	-0.67580 	-0.61505 	-0.55395 	-0.49215 	-0.65640 	-0.67680 	-0.65825 	-0.43190 	-0.56470 	-0.90850 	-0.40210 	-0.33955 	-0.54855 	-0.88430 	-0.54805 	-0.46825 	-0.45200 	-0.88175 	-0.90520 	-0.78025 	-0.89255 	-1.04335 	-0.47205 	-0.34340 
-0.51410 	-0.49225 	-0.46770 	-0.67220 	-0.61490 	-0.53165 	-0.48290 	-0.63560 	-0.68060 	-0.63045 	-0.42370 	-0.55295 	-0.90580 	-0.39955 	-0.33665 	-0.54975 	-0.89860 	-0.57150 	-0.47895 	-0.46525 	-0.90460 	-0.92525 	-0.81820 	-0.93635 	-1.07575 	-0.51595 	-0.39735 
-0.50180 	-0.49485 	-0.45890 	-0.66185 	-0.60870 	-0.50795 	-0.46770 	-0.60565 	-0.67520 	-0.59835 	-0.40800 	-0.53415 	-0.88920 	-0.40005 	-0.32540 	-0.54200 	-0.90155 	-0.59220 	-0.48115 	-0.47090 	-0.91850 	-0.93655 	-0.84665 	-0.96885 	-1.09500 	-0.54890 	-0.44220 
-0.48285 	-0.48765 	-0.44355 	-0.64255 	-0.59435 	-0.48170 	-0.44385 	-0.56450 	-0.65750 	-0.56055 	-0.38195 	-0.50590 	-0.85595 	-0.39975 	-0.30235 	-0.52200 	-0.88975 	-0.60625 	-0.47150 	-0.46530 	-0.91975 	-0.93610 	-0.86210 	-0.98610 	-1.09775 	-0.56705 	-0.47405 
-0.45485 	-0.46710 	-0.41880 	-0.61190 	-0.56915 	-0.45100 	-0.40840 	-0.51010 	-0.62440 	-0.51485 	-0.34245 	-0.46555 	-0.80305 	-0.39330 	-0.26390 	-0.48630 	-0.85970 	-0.60955 	-0.44635 	-0.44465 	-0.90435 	-0.92040 	-0.86065 	-0.98400 	-1.08040 	-0.56665 	-0.48890 
-0.41510 	-0.43000 	-0.38185 	-0.56750 	-0.53040 	-0.41350 	-0.35860 	-0.44070 	-0.57305 	-0.45810 	-0.28630 	-0.41050 	-0.72760 	-0.37420 	-0.20650 	-0.43150 	-0.80815 	-0.59740 	-0.40180 	-0.40495 	-0.86815 	-0.88555 	-0.83830 	-0.95815 	-1.03925 	-0.54365 	-0.48240 
-0.36105 	-0.37365 	-0.32975 	-0.50710 	-0.47505 	-0.36600 	-0.29170 	-0.35475 	-0.50095 	-0.38665 	-0.21070 	-0.33825 	-0.62700 	-0.33585 	-0.12675 	-0.35415 	-0.73175 	-0.56535 	-0.33415 	-0.34235 	-0.80690 	-0.82745 	-0.79095 	-0.90450 	-0.97040 	-0.49425 	-0.45055 
-0.29000 	-0.29585 	-0.25995 	-0.42845 	-0.40045 	-0.30470 	-0.20520 	-0.25075 	-0.40610 	-0.29630 	-0.11275 	-0.24620 	-0.49865 	-0.27180 	-0.02145 	-0.25120 	-0.62735 	-0.50885 	-0.23995 	-0.25310 	-0.71670 	-0.74190 	-0.71455 	-0.81895 	-0.87005 	-0.41470 	-0.38935 
-0.19925 	-0.19475 	-0.16985 	-0.32965 	-0.30410 	-0.22545 	-0.09680 	-0.12745 	-0.28675 	-0.18295 	0.01015 	-0.13195 	-0.34060 	-0.17610 	0.11215 	-0.11990 	-0.49225 	-0.42340 	-0.11580 	-0.13370 	-0.59400 	-0.62475 	-0.60540 	-0.69810 	-0.73475 	-0.30165 	-0.29535 
-0.08645 	-0.06935 	-0.05735 	-0.20875 	-0.18385 	-0.12400 	0.03530 	0.01630 	-0.14180 	-0.04245 	0.16020 	0.00690 	-0.15150 	-0.04400 	0.27630 	0.04235 	-0.32390 	-0.30470 	0.04100 	0.01870 	-0.43605 	-0.47240 	-0.46010 	-0.53885 	-0.56135 	-0.15250 	-0.16575 
0.05060 	0.08100 	0.07940 	-0.06430 	-0.03810 	0.00340 	0.19265 	0.18160 	0.02960 	0.12865 	0.33920 	0.17235 	0.06975 	0.12840 	0.47290 	0.23730 	-0.12045 	-0.14880 	0.23275 	0.20645 	-0.24030 	-0.28150 	-0.27570 	-0.33900 	-0.34745 	0.03520 	0.00200 
0.21345 	0.25625 	0.24170 	0.10475 	0.13385 	0.15990 	0.37630 	0.36930 	0.22835 	0.33330 	0.54830 	0.36580 	0.32340 	0.34355 	0.70280 	0.46630 	0.11950 	0.04755 	0.46105 	0.43115 	-0.00535 	-0.04955 	-0.05015 	-0.09690 	-0.09125 	0.26290 	0.20960 
0.40305 	0.45570 	0.42995 	0.29890 	0.33225 	0.34785 	0.58650 	0.57955 	0.45455 	0.57355 	0.78780 	0.58785 	0.60880 	0.60285 	0.96630 	0.72960 	0.39620 	0.28645 	0.72645 	0.69340 	0.26950 	0.22505 	0.21780 	0.18800 	0.20795 	0.53140 	0.45805 
0.61955 	0.67785 	0.64395 	0.51755 	0.55620 	0.56850 	0.82250 	0.81165 	0.70795 	0.85055 	1.05655 	0.83765 	0.92440 	0.90600 	1.26215 	1.02615 	0.70890 	0.56850 	1.02820 	0.99245 	0.58375 	0.54255 	0.52790 	0.51500 	0.54980 	0.84020 	0.74710 
0.86195 	0.92055 	0.88190 	0.75905 	0.80365 	0.82175 	1.08220 	1.06340 	0.98700 	1.16450 	1.35200 	1.11275 	1.26720 	1.25140 	1.58770 	1.35345 	1.05495 	0.89215 	1.36395 	1.32585 	0.93520 	0.90165 	0.87820 	0.88185 	0.93205 	1.18725 	1.07515 
1.12800 	1.18045 	1.14065 	1.02020 	1.07130 	1.10605 	1.36210 	1.33115 	1.28880 	1.51390 	1.66970 	1.40870 	1.63290 	1.63525 	1.93840 	1.70685 	1.42995 	1.25330 	1.72940 	1.68920 	1.31985 	1.29870 	1.26445 	1.28410 	1.35050 	1.56845 	1.43825 
1.41350 	1.45275 	1.41530 	1.29595 	1.35425 	1.41790 	1.65655 	1.60945 	1.60855 	1.89490 	2.00345 	1.71905 	2.01540 	2.05130 	2.30760 	2.07960 	1.82710 	1.64520 	2.11775 	2.07575 	1.73090 	1.72735 	1.67990 	1.71495 	1.79825 	1.97710 	1.83010 
1.71215 	1.73150 	1.69875 	1.57955 	1.64575 	1.75110 	1.95810 	1.89065 	1.93920 	2.30055 	2.34470 	2.03510 	2.40670 	2.49050 	2.68645 	2.46250 	2.23695 	2.05770 	2.51975 	2.47605 	2.15905 	2.17825 	2.11470 	2.16460 	2.26545 	2.40395 	2.24135 
2.01495 	2.00815 	1.98180 	1.86165 	1.93660 	2.09665 	2.25685 	2.16510 	2.27135 	2.72005 	2.68245 	2.34585 	2.79630 	2.94035 	3.06320 	2.84375 	2.64740 	2.47740 	2.92315 	2.87780 	2.59175 	2.63815 	2.55580 	2.62015 	2.73895 	2.83630 	2.65955 
2.31000 	2.27235 	2.25260 	2.13045 	2.21520 	2.44215 	2.54040 	2.42060 	2.59285 	3.13890 	3.00345 	2.63775 	3.17125 	3.38510 	3.42375 	3.20865 	3.04335 	2.88750 	3.31275 	3.26570 	3.01305 	3.09055 	2.98675 	3.06545 	3.20205 	3.25825 	3.06890 
2.58255 	2.51100 	2.49670 	2.37195 	2.46735 	2.77195 	2.79395 	2.64280 	2.88915 	3.53885 	3.29170 	2.89505 	3.51580 	3.80585 	3.75095 	3.53990 	3.40720 	3.26755 	3.67050 	3.62170 	3.40415 	3.51525 	3.38810 	3.48110 	3.63490 	3.65065 	3.45045 
2.81535 	2.70895 	2.69800 	2.56980 	2.67685 	3.06750 	3.00080 	2.81560 	3.14365 	3.89910 	3.52965 	3.10015 	3.81170 	4.18120 	4.02595 	3.81830 	3.71920 	3.59480 	3.97620 	3.92535 	3.74385 	3.88945 	3.73770 	3.84520 	4.01475 	3.99195 	3.78275 
2.98980 	2.84985 	2.83915 	2.70720 	2.82650 	3.30855 	3.14350 	2.92215 	3.33895 	4.19740 	3.69870 	3.23495 	4.03940 	4.48850 	4.22865 	4.02375 	3.95875 	3.84520 	4.20855 	4.15550 	4.00955 	4.18905 	4.01230 	4.13455 	4.31760 	4.25895 	4.04295 
3.08775 	2.91785 	2.90385 	2.76805 	2.89995 	3.47530 	3.20555 	2.94720 	3.45835 	4.41255 	3.78135 	3.28280 	4.18005 	4.70585 	4.34020 	4.13725 	4.10655 	3.99590 	4.34725 	4.29165 	4.17995 	4.39050 	4.18965 	4.32655 	4.51980 	4.42920 	4.20855 
3.09460 	2.90015 	2.87935 	2.74025 	2.88475 	3.55130 	3.17445 	2.87935 	3.48880 	4.52700 	3.76415 	3.23115 	4.21785 	4.81460 	4.34555 	4.14375 	4.14695 	4.02805 	4.37565 	4.31740 	4.23730 	4.47385 	4.25085 	4.40215 	4.60145 	4.48355 	4.26065 
3.00190 	2.79000 	2.75955 	2.61820 	2.77490 	3.52655 	3.04435 	2.71445 	3.42355 	4.52985 	3.64050 	3.07495 	4.14425 	4.80265 	4.23645 	4.03540 	4.07140 	3.93010 	4.28435 	4.22315 	4.17100 	4.42645 	4.18455 	4.34925 	4.54960 	4.40985 	4.18690 
2.81060 	2.58925 	2.54740 	2.40575 	2.57390 	3.40045 	2.81885 	2.45810 	3.26445 	4.41975 	3.41365 	2.81930 	3.96000 	4.66700 	4.01485 	3.81425 	3.88120 	3.70095 	4.07380 	4.00955 	3.98085 	4.24575 	3.98930 	4.16600 	4.36175 	4.20580 	3.98465 
2.53185 	2.30970 	2.25610 	2.11695 	2.29505 	3.18250 	2.51210 	2.12640 	3.02335 	4.20535 	3.09745 	2.48020 	3.67710 	4.41575 	3.69355 	3.49340 	3.58905 	3.35095 	3.75595 	3.68855 	3.67815 	3.94125 	3.67560 	3.86210 	4.04740 	3.88065 	3.66280 
2.18630 	1.97165 	1.90790 	1.77495 	1.96090 	2.89170 	2.14755 	1.74525 	2.72080 	3.90475 	2.71570 	2.08380 	3.31775 	4.06680 	3.29580 	3.09660 	3.21820 	2.90155 	3.35325 	3.28275 	3.28540 	3.53395 	3.26490 	3.45870 	3.62785 	3.45495 	3.24125 
1.80110 	1.60175 	1.53125 	1.40870 	1.59945 	2.55295 	1.75485 	1.34625 	2.38305 	3.54225 	2.29865 	1.66280 	2.91110 	3.64560 	2.85160 	2.65445 	2.79925 	2.38190 	2.89560 	2.82235 	2.83305 	3.05355 	2.78725 	2.98520 	3.13340 	2.95770 	2.74805 
1.40565 	1.22790 	1.15600 	1.04850 	1.23985 	2.19345 	1.36510 	0.96245 	2.03750 	3.14400 	1.87845 	1.25140 	2.48840 	3.18090 	2.39365 	2.20045 	2.36585 	1.82490 	2.41620 	2.34060 	2.35500 	2.53370 	2.27605 	2.47525 	2.59875 	2.42170 	2.21550 
1.02695 	0.87560 	0.80905 	0.72135 	0.90820 	1.83810 	1.00640 	0.62325 	1.70895 	2.73415 	1.48465 	0.88070 	2.07875 	2.70055 	1.95230 	1.76580 	1.94940 	1.26215 	1.94625 	1.86905 	1.88385 	2.00745 	1.76405 	1.96140 	2.05820 	1.87920 	1.67515 
0.68630 	0.56425 	0.51085 	0.44760 	0.62410 	1.50640 	0.70010 	0.35070 	1.41605 	2.33170 	1.14010 	0.57445 	1.70495 	2.22805 	1.55190 	1.37565 	1.57540 	0.72070 	1.51145 	1.43355 	1.44665 	1.50300 	1.27860 	1.47160 	1.54125 	1.35790 	1.15445 
0.39755 	0.30575 	0.27380 	0.23890 	0.39885 	1.21085 	0.45920 	0.15775 	1.16980 	1.94925 	0.85935 	0.34750 	1.38185 	1.78060 	1.20875 	1.04695 	1.26115 	0.22060 	1.12995 	1.05220 	1.06275 	1.04125 	0.83990 	1.02630 	1.07010 	0.87825 	0.67375 
0.16675 	0.10435 	0.10180 	0.09865 	0.23590 	0.95670 	0.28780 	0.04815 	0.97405 	1.59315 	0.64825 	0.20470 	1.11630 	1.36890 	0.93075 	0.78810 	1.01515 	-0.22525 	0.81120 	0.73480 	0.74290 	0.63520 	0.45990 	0.63795 	0.65870 	0.45310 	0.24605 
-0.00680 	-0.04220 	-0.00810 	0.02290 	0.13210 	0.74335 	0.18285 	0.01740 	0.82660 	1.26465 	0.50500 	0.14275 	0.90820 	0.99805 	0.71830 	0.59960 	0.83830 	-0.61045 	0.55785 	0.48365 	0.49060 	0.29060 	0.14340 	0.31185 	0.31335 	0.08835 	-0.12250 
-0.12850 	-0.14065 	-0.06420 	0.00235 	0.07940 	0.56590 	0.13545 	0.05495 	0.72095 	0.96165 	0.42220 	0.15195 	0.75240 	0.66885 	0.56630 	0.47620 	0.72560 	-0.93350 	0.36640 	0.29535 	0.30310 	0.00760 	-0.11065 	0.04750 	0.03440 	-0.21560 	-0.43115 
-0.20725 	-0.20065 	-0.07815 	0.02450 	0.06690 	0.41730 	0.13350 	0.14615 	0.64815 	0.68040 	0.38845 	0.21800 	0.64080 	0.37900 	0.46560 	0.40840 	0.66785 	-1.19630 	0.22970 	0.16245 	0.17360 	-0.21750 	-0.30710 	-0.15960 	-0.18230 	-0.46240 	-0.68275 
-0.25335 	-0.23310 	-0.06315 	0.07520 	0.08250 	0.28965 	0.16290 	0.27435 	0.59820 	0.41665 	0.39060 	0.32420 	0.56335 	0.12460 	0.40515 	0.38430 	0.65345 	-1.40270 	0.13815 	0.07530 	0.09275 	-0.39090 	-0.45360 	-0.31630 	-0.34350 	-0.65775 	-0.88250 
-0.27765 	-0.24890 	-0.03260 	0.14015 	0.11395 	0.17555 	0.20920 	0.42230 	0.56125 	0.16670 	0.41445 	0.45290 	0.50990 	-0.09900 	0.37300 	0.39090 	0.66970 	-1.55755 	0.08120 	0.02325 	0.05005 	-0.51985 	-0.55865 	-0.43070 	-0.45720 	-0.80855 	-1.03665 
-0.29030 	-0.25790 	0.00105 	0.20605 	0.15025 	0.06900 	0.25905 	0.57355 	0.52815 	-0.07190 	0.44690 	0.58720 	0.47060 	-0.29645 	0.35755 	0.41555 	0.70435 	-1.66580 	0.04825 	-0.00465 	0.03470 	-0.61185 	-0.63120 	-0.51115 	-0.53175 	-0.92215 	-1.15165 
-0.30035 	-0.26870 	0.02690 	0.26150 	0.18210 	-0.03460 	0.30065 	0.71375 	0.49130 	-0.29995 	0.47590 	0.71200 	0.43700 	-0.47160 	0.34855 	0.44670 	0.74620 	-1.73205 	0.02975 	-0.01795 	0.03695 	-0.67400 	-0.67940 	-0.56545 	-0.57510 	-1.00515 	-1.23365 
-0.31475 	-0.28775 	0.03650 	0.29760 	0.20260 	-0.13750 	0.32490 	0.83115 	0.44555 	-0.51680 	0.49225 	0.81505 	0.40245 	-0.62715 	0.33755 	0.47465 	0.78595 	-1.75980 	0.01760 	-0.02490 	0.04835 	-0.71245 	-0.71035 	-0.60010 	-0.59395 	-1.06330 	-1.28765 
-0.33880 	-0.31935 	0.02435 	0.30840 	0.20745 	-0.24060 	0.32575 	0.91755 	0.38760 	-0.72070 	0.48930 	0.88775 	0.36235 	-0.76425 	0.31860 	0.49235 	0.81660 	-1.75170 	0.00570 	-0.03160 	0.06255 	-0.73195 	-0.72935 	-0.62025 	-0.59385 	-1.10105 	-1.31765 
-0.37555 	-0.36550 	-0.01230 	0.29105 	0.19435 	-0.34305 	0.30030 	0.96835 	0.31670 	-0.90895 	0.46365 	0.92520 	0.31430 	-0.88255 	0.28830 	0.49530 	0.83370 	-1.70885 	-0.00995 	-0.04215 	0.07510 	-0.73615 	-0.74040 	-0.62960 	-0.57875 	-1.12150 	-1.32670 
-0.42620 	-0.42630 	-0.07325 	0.24545 	0.16340 	-0.44290 	0.24865 	0.98215 	0.23385 	-1.07900 	0.41495 	0.92620 	0.25755 	-0.98030 	0.24540 	0.48165 	0.83495 	-1.63160 	-0.03140 	-0.05870 	0.08350 	-0.72720 	-0.74570 	-0.63045 	-0.55145 	-1.12680 	-1.31665 
-0.49020 	-0.50010 	-0.15620 	0.17400 	0.11610 	-0.53770 	0.17365 	0.96065 	0.14130 	-1.22805 	0.34515 	0.89280 	0.19260 	-1.05470 	0.19095 	0.45160 	0.81995 	-1.51980 	-0.05890 	-0.08140 	0.08670 	-0.70675 	-0.74635 	-0.62415 	-0.51360 	-1.11815 	-1.28895 
-0.56555 	-0.58410 	-0.25680 	0.08090 	0.05545 	-0.62485 	0.07995 	0.90780 	0.04205 	-1.35345 	0.25825 	0.82920 	0.12085 	-1.10275 	0.12725 	0.40695 	0.78960 	-1.37315 	-0.09165 	-0.10965 	0.08485 	-0.67585 	-0.74260 	-0.61140 	-0.46655 	-1.09655 	-1.24495 
-0.64945 	-0.67470 	-0.36935 	-0.02815 	-0.01465 	-0.70175 	-0.02635 	0.82925 	-0.06025 	-1.45280 	0.15965 	0.74145 	0.04430 	-1.12130 	0.05765 	0.35050 	0.74540 	-1.19240 	-0.12785 	-0.14165 	0.07865 	-0.63540 	-0.73425 	-0.59255 	-0.41130 	-1.06275 	-1.18590 
-0.73820 	-0.76795 	-0.48770 	-0.14675 	-0.08985 	-0.76625 	-0.13855 	0.73145 	-0.16180 	-1.52375 	0.05535 	0.63630 	-0.03505 	-1.10785 	-0.01410 	0.28570 	0.68940 	-0.97930 	-0.16540 	-0.17535 	0.06900 	-0.58650 	-0.72100 	-0.56810 	-0.34895 	-1.01770 	-1.11365 
-0.82775 	-0.85995 	-0.60545 	-0.26855 	-0.16555 	-0.81670 	-0.24990 	0.62115 	-0.25915 	-1.56465 	-0.04880 	0.52050 	-0.11520 	-1.06140 	-0.08435 	0.21590 	0.62360 	-0.73730 	-0.20215 	-0.20875 	0.05695 	-0.53005 	-0.70255 	-0.53845 	-0.28085 	-0.96275 	-1.03050 
-0.91425 	-0.94715 	-0.71675 	-0.38765 	-0.23755 	-0.85220 	-0.35455 	0.50455 	-0.34950 	-1.57490 	-0.14750 	0.40020 	-0.19440 	-0.98255 	-0.14995 	0.14420 	0.54990 	-0.47160 	-0.23610 	-0.24005 	0.04315 	-0.46770 	-0.67885 	-0.50455 	-0.20875 	-0.89960 	-0.93920 
-0.99380 	-1.02665 	-0.81700 	-0.49925 	-0.30265 	-0.87235 	-0.44755 	0.38680 	-0.43065 	-1.55520 	-0.23645 	0.28060 	-0.27130 	-0.87410 	-0.20845 	0.07300 	0.47005 	-0.18890 	-0.26590 	-0.26780 	0.02815 	-0.40085 	-0.65035 	-0.46735 	-0.13440 	-0.83025 	-0.84295 
-1.06335 	-1.09655 	-0.90270 	-0.59980 	-0.35855 	-0.87770 	-0.52595 	0.27200 	-0.50175 	-1.50780 	-0.31300 	0.16550 	-0.34535 	-0.74130 	-0.25865 	0.00410 	0.38530 	0.10265 	-0.29100 	-0.29130 	0.01180 	-0.33170 	-0.61785 	-0.42845 	-0.06005 	-0.75720 	-0.74490 
-1.12055 	-1.15580 	-0.97230 	-0.68720 	-0.40435 	-0.86930 	-0.58815 	0.16270 	-0.56295 	-1.43655 	-0.37590 	0.05755 	-0.41650 	-0.59135 	-0.30030 	-0.06175 	0.29635 	0.39390 	-0.31145 	-0.31075 	-0.00645 	-0.26260 	-0.58285 	-0.38945 	0.01210 	-0.68310 	-0.64835 
-1.16380 	-1.20425 	-1.02530 	-0.76065 	-0.44015 	-0.84900 	-0.63425 	0.06030 	-0.61490 	-1.34660 	-0.42560 	-0.04225 	-0.48555 	-0.43285 	-0.33440 	-0.12455 	0.20345 	0.67530 	-0.32825 	-0.32695 	-0.02760 	-0.19645 	-0.54720 	-0.35245 	0.07960 	-0.61080 	-0.55635 
-1.19230 	-1.24225 	-1.06290 	-0.82035 	-0.46695 	-0.81910 	-0.66590 	-0.03495 	-0.65905 	-1.24360 	-0.46365 	-0.13405 	-0.55340 	-0.27500 	-0.36280 	-0.18515 	0.10630 	0.93740 	-0.34295 	-0.34145 	-0.05300 	-0.13640 	-0.51305 	-0.31950 	0.14010 	-0.54325 	-0.47180 
-1.20610 	-1.27055 	-1.08700 	-0.86725 	-0.48630 	-0.78215 	-0.68570 	-0.12365 	-0.69690 	-1.13370 	-0.49295 	-0.21895 	-0.62110 	-0.12660 	-0.38795 	-0.24510 	0.00445 	1.17135 	-0.35755 	-0.35610 	-0.08395 	-0.08525 	-0.48270 	-0.29265 	0.19130 	-0.48305 	-0.39730 
-1.20540 	-1.29005 	-1.10010 	-0.90295 	-0.50015 	-0.74095 	-0.69675 	-0.20685 	-0.73005 	-1.02240 	-0.51675 	-0.29875 	-0.68950 	0.00440 	-0.41265 	-0.30585 	-0.10265 	1.36955 	-0.37425 	-0.37280 	-0.12175 	-0.04575 	-0.45840 	-0.27380 	0.23110 	-0.43255 	-0.33495 
-1.19120 	-1.30155 	-1.10490 	-0.92930 	-0.51045 	-0.69790 	-0.70265 	-0.28605 	-0.76025 	-0.91450 	-0.53875 	-0.37570 	-0.75900 	0.11130 	-0.43975 	-0.36925 	-0.21520 	1.52575 	-0.39505 	-0.39350 	-0.16730 	-0.01975 	-0.44200 	-0.26410 	0.25795 	-0.39325 	-0.28605 
-1.16440 	-1.30560 	-1.10435 	-0.94835 	-0.51935 	-0.65510 	-0.70695 	-0.36285 	-0.78900 	-0.81375 	-0.56255 	-0.45215 	-0.82955 	0.18915 	-0.47195 	-0.43690 	-0.33335 	1.63565 	-0.42180 	-0.41960 	-0.22105 	-0.00850 	-0.43480 	-0.26455 	0.27090 	-0.36620 	-0.25140 
-1.12650 	-1.30285 	-1.10115 	-0.96235 	-0.52875 	-0.61440 	-0.71310 	-0.43905 	-0.81815 	-0.72305 	-0.59170 	-0.53040 	-0.90090 	0.23475 	-0.51155 	-0.51035 	-0.45700 	1.69700 	-0.45605 	-0.45260 	-0.28335 	-0.01230 	-0.43775 	-0.27530 	0.26975 	-0.35145 	-0.23090 
-1.07915 	-1.29385 	-1.09815 	-0.97375 	-0.54040 	-0.57715 	-0.72430 	-0.51640 	-0.84915 	-0.64440 	-0.62935 	-0.61290 	-0.97255 	0.24670 	-0.56080 	-0.59100 	-0.58570 	1.70960 	-0.49915 	-0.49350 	-0.35415 	-0.03090 	-0.45125 	-0.29630 	0.25460 	-0.34860 	-0.22380 
-1.02445 	-1.27960 	-1.09780 	-0.98480 	-0.55600 	-0.54435 	-0.74360 	-0.59670 	-0.88345 	-0.57975 	-0.67840 	-0.70170 	-1.04415 	0.22530 	-0.62160 	-0.68010 	-0.71920 	1.67545 	-0.55230 	-0.54325 	-0.43345 	-0.06365 	-0.47545 	-0.32715 	0.22625 	-0.35700 	-0.22920 
-0.96510 	-1.26120 	-1.10255 	-0.99780 	-0.57680 	-0.51730 	-0.77335 	-0.68165 	-0.92205 	-0.53035 	-0.74125 	-0.79875 	-1.11570 	0.17225 	-0.69560 	-0.77900 	-0.85720 	1.59790 	-0.61655 	-0.60270 	-0.52115 	-0.10955 	-0.51025 	-0.36755 	0.18555 	-0.37575 	-0.24595 
-0.90380 	-1.24010 	-1.11435 	-1.01480 	-0.60375 	-0.49690 	-0.81565 	-0.77255 	-0.96565 	-0.49720 	-0.82005 	-0.90550 	-1.18745 	0.09025 	-0.78410 	-0.88855 	-0.99935 	1.48170 	-0.69270 	-0.67245 	-0.61710 	-0.16750 	-0.55555 	-0.41695 	0.13345 	-0.40415 	-0.27310 
-0.84345 	-1.21810 	-1.13480 	-1.03745 	-0.63710 	-0.48430 	-0.87190 	-0.87040 	-1.01435 	-0.48070 	-0.91590 	-1.02295 	-1.25980 	-0.01735 	-0.88790 	-1.00960 	-1.14525 	1.33245 	-0.78125 	-0.75305 	-0.72110 	-0.23635 	-0.61090 	-0.47490 	0.07105 	-0.44155 	-0.30975 
-0.78680 	-1.19700 	-1.16495 	-1.06695 	-0.67675 	-0.48065 	-0.94280 	-0.97575 	-1.06760 	-0.48070 	-1.02960 	-1.15150 	-1.33315 	-0.14655 	-1.00735 	-1.14230 	-1.29435 	1.15630 	-0.88220 	-0.84450 	-0.83245 	-0.31445 	-0.67570 	-0.54065 	-0.00040 	-0.48720 	-0.35500 
-0.73610 	-1.17865 	-1.20535 	-1.10410 	-0.72210 	-0.48670 	-1.02840 	-1.08860 	-1.12420 	-0.49630 	-1.16085 	-1.29105 	-1.40765 	-0.29320 	-1.14195 	-1.28635 	-1.44575 	0.95970 	-0.99520 	-0.94635 	-0.95015 	-0.40000 	-0.74875 	-0.61320 	-0.07930 	-0.54010 	-0.40765 
-0.69320 	-1.16480 	-1.25610 	-1.14940 	-0.77255 	-0.50305 	-1.12815 	-1.20865 	-1.18245 	-0.52610 	-1.30875 	-1.44080 	-1.48310 	-0.45270 	-1.29070 	-1.44070 	-1.59805 	0.74910 	-1.11905 	-1.05760 	-1.07270 	-0.49075 	-0.82850 	-0.69130 	-0.16385 	-0.59920 	-0.46635 
-0.65925 	-1.15720 	-1.31700 	-1.20305 	-0.82730 	-0.52995 	-1.24140 	-1.33545 	-1.24080 	-0.56830 	-1.47190 	-1.59965 	-1.55945 	-0.62055 	-1.45215 	-1.60395 	-1.74980 	0.53070 	-1.25235 	-1.17690 	-1.19825 	-0.58425 	-0.91320 	-0.77325 	-0.25190 	-0.66285 	-0.52935 
-0.63505 	-1.15770 	-1.38785 	-1.26535 	-0.88620 	-0.56730 	-1.36695 	-1.46805 	-1.29790 	-0.62065 	-1.64835 	-1.76600 	-1.63625 	-0.79250 	-1.62430 	-1.77425 	-1.89960 	0.31020 	-1.39330 	-1.30240 	-1.32490 	-0.67805 	-1.00070 	-0.85745 	-0.34135 	-0.72955 	-0.59495 
-0.62135 	-1.16800 	-1.46845 	-1.33655 	-0.94905 	-0.61470 	-1.50385 	-1.60585 	-1.35340 	-0.68080 	-1.83600 	-1.93805 	-1.71345 	-0.96470 	-1.80515 	-1.94970 	-2.04605 	0.09255 	-1.53985 	-1.43235 	-1.45085 	-0.76970 	-1.08895 	-0.94215 	-0.43000 	-0.79760 	-0.66130 
-0.61850 	-1.18975 	-1.55875 	-1.41695 	-1.01615 	-0.67150 	-1.65115 	-1.74785 	-1.40760 	-0.74650 	-2.03275 	-2.11380 	-1.79090 	-1.13380 	-1.99245 	-2.12825 	-2.18815 	-0.11805 	-1.69015 	-1.56480 	-1.57430 	-0.85690 	-1.17610 	-1.02570 	-0.51585 	-0.86530 	-0.72645 
-0.62675 	-1.22450 	-1.65890 	-1.50690 	-1.08790 	-0.73680 	-1.80795 	-1.89330 	-1.46150 	-0.81580 	-2.23635 	-2.29130 	-1.86865 	-1.29690 	-2.18405 	-2.30800 	-2.32495 	-0.31790 	-1.84220 	-1.69795 	-1.69380 	-0.93760 	-1.26035 	-1.10655 	-0.59700 	-0.93100 	-0.78870 
-0.64655 	-1.27345 	-1.76915 	-1.60675 	-1.16535 	-0.80975 	-1.97365 	-2.04145 	-1.51685 	-0.88745 	-2.44485 	-2.46850 	-1.94665 	-1.45160 	-2.37790 	-2.48695 	-2.45570 	-0.50415 	-1.99410 	-1.83010 	-1.80815 	-1.00995 	-1.34025 	-1.18335 	-0.67185 	-0.99330 	-0.84655 
-0.67810 	-1.33770 	-1.89005 	-1.71725 	-1.24985 	-0.88960 	-2.14790 	-2.19225 	-1.57595 	-0.96110 	-2.65650 	-2.64415 	-2.02530 	-1.59620 	-2.57220 	-2.66350 	-2.57990 	-0.67450 	-2.14445 	-1.95990 	-1.91630 	-1.07245 	-1.41485 	-1.25495 	-0.73925 	-1.05105 	-0.89870 
-0.72175 	-1.41780 	-2.02260 	-1.83940 	-1.34340 	-0.97565 	-2.33065 	-2.34605 	-1.64185 	-1.03720 	-2.87020 	-2.81735 	-2.10520 	-1.72975 	-2.76550 	-2.83650 	-2.69700 	-0.82730 	-2.29200 	-2.08620 	-2.01770 	-1.12385 	-1.48365 	-1.32065 	-0.79845 	-1.10335 	-0.94430 
-0.77780 	-1.51400 	-2.16770 	-1.97420 	-1.44825 	-1.06760 	-2.52220 	-2.50395 	-1.71735 	-1.11660 	-3.08520 	-2.98840 	-2.18735 	-1.85165 	-2.95665 	-3.00515 	-2.80685 	-0.96125 	-2.43590 	-2.20825 	-2.11190 	-1.16330 	-1.54645 	-1.37995 	-0.84935 	-1.14995 	-0.98310 
-0.84625 	-1.62600 	-2.32625 	-2.12290 	-1.56660 	-1.16490 	-2.72295 	-2.66745 	-1.80530 	-1.20035 	-3.30120 	-3.15815 	-2.27300 	-1.96180 	-3.14475 	-3.16885 	-2.90930 	-1.07545 	-2.57545 	-2.32565 	-2.19870 	-1.19045 	-1.60350 	-1.43270 	-0.89205 	-1.19075 	-1.01490 
-0.92715 	-1.75305 	-2.49895 	-2.28625 	-1.70005 	-1.26720 	-2.93330 	-2.83805 	-1.90760 	-1.28895 	-3.51815 	-3.32785 	-2.36320 	-2.06015 	-3.32905 	-3.32760 	-3.00455 	-1.16905 	-2.71040 	-2.43795 	-2.27830 	-1.20540 	-1.65530 	-1.47895 	-0.92715 	-1.22595 	-1.04005 
-1.02010 	-1.89385 	-2.68600 	-2.46450 	-1.84920 	-1.37395 	-3.15325 	-3.01690 	-2.02495 	-1.38230 	-3.73580 	-3.49895 	-2.45860 	-2.14680 	-3.50900 	-3.48115 	-3.09275 	-1.24150 	-2.84040 	-2.54495 	-2.35060 	-1.20895 	-1.70240 	-1.51880 	-0.95525 	-1.25600 	-1.05905 
-1.12455 	-2.04650 	-2.88700 	-2.65740 	-2.01375 	-1.48470 	-3.38235 	-3.20430 	-2.15705 	-1.47995 	-3.95380 	-3.67260 	-2.55935 	-2.22165 	-3.68375 	-3.62970 	-3.17445 	-1.29275 	-2.96510 	-2.64655 	-2.41590 	-1.20235 	-1.74540 	-1.55275 	-0.97725 	-1.28140 	-1.07245 
-1.23980 	-2.20915 	-3.10095 	-2.86350 	-2.19245 	-1.59930 	-3.61960 	-3.39950 	-2.30255 	-1.58135 	-4.17160 	-3.84920 	-2.66510 	-2.28500 	-3.85275 	-3.77320 	-3.25025 	-1.32335 	-3.08430 	-2.74275 	-2.47465 	-1.18760 	-1.78485 	-1.58135 	-0.99425 	-1.30265 	-1.08120 
-1.36500 	-2.37955 	-3.32615 	-3.08095 	-2.38330 	-1.71800 	-3.86350 	-3.60095 	-2.45965 	-1.68640 	-4.38805 	-4.02845 	-2.77500 	-2.33785 	-4.01530 	-3.91165 	-3.32075 	-1.33485 	-3.19785 	-2.83345 	-2.52725 	-1.16705 	-1.82160 	-1.60525 	-1.00765 	-1.32055 	-1.08650 
-1.49900 	-2.55575 	-3.56055 	-3.30730 	-2.58400 	-1.84110 	-4.11210 	-3.80620 	-2.62615 	-1.79520 	-4.60195 	-4.20900 	-2.88780 	-2.38185 	-4.17060 	-4.04490 	-3.38645 	-1.32995 	-3.30560 	-2.91885 	-2.57435 	-1.14345 	-1.85615 	-1.62545 	-1.01890 	-1.33600 	-1.08965 
-1.64035 	-2.73545 	-3.80155 	-3.53970 	-2.79220 	-1.96915 	-4.36280 	-4.01230 	-2.79985 	-1.90810 	-4.81160 	-4.38905 	-3.00235 	-2.41930 	-4.31785 	-4.17245 	-3.44760 	-1.31215 	-3.40725 	-2.99895 	-2.61650 	-1.11920 	-1.88895 	-1.64275 	-1.02935 	-1.34965 	-1.09195 
-1.78705 	-2.91660 	-4.04620 	-3.77505 	-3.00510 	-2.10205 	-4.61300 	-4.21620 	-2.97855 	-2.02485 	-5.01505 	-4.56615 	-3.11700 	-2.45240 	-4.45595 	-4.29355 	-3.50400 	-1.28550 	-3.50235 	-3.07335 	-2.65405 	-1.09645 	-1.92015 	-1.65765 	-1.04010 	-1.36185 	-1.09415 
-1.93670 	-3.09705 	-4.29125 	-4.01005 	-3.21995 	-2.23885 	-4.85970 	-4.41495 	-3.15980 	-2.14490 	-5.21015 	-4.73780 	-3.23035 	-2.48295 	-4.58380 	-4.40715 	-3.55515 	-1.25455 	-3.59010 	-3.14160 	-2.68715 	-1.07645 	-1.94925 	-1.67030 	-1.05150 	-1.37270 	-1.09620 
-2.08625 	-3.27465 	-4.53345 	-4.24160 	-3.43375 	-2.37810 	-5.09985 	-4.60595 	-3.34140 	-2.26700 	-5.39470 	-4.90155 	-3.34080 	-2.51225 	-4.70000 	-4.51210 	-3.60060 	-1.22370 	-3.66955 	-3.20285 	-2.71565 	-1.05990 	-1.97540 	-1.68045 	-1.06335 	-1.38145 	-1.09755 
-2.23275 	-3.44755 	-4.76955 	-4.46655 	-3.64330 	-2.51760 	-5.33060 	-4.78695 	-3.52115 	-2.38990 	-5.56675 	-5.05515 	-3.44690 	-2.54115 	-4.80355 	-4.60720 	-3.63955 	-1.19750 	-3.73970 	-3.25625 	-2.73925 	-1.04705 	-1.99770 	-1.68765 	-1.07515 	-1.38735 	-1.09715 
-2.37320 	-3.61420 	-4.99660 	-4.68215 	-3.84570 	-2.65515 	-5.54950 	-4.95655 	-3.69685 	-2.51190 	-5.72465 	-5.19680 	-3.54740 	-2.57000 	-4.89345 	-4.69140 	-3.67165 	-1.18000 	-3.79965 	-3.30095 	-2.75780 	-1.03790 	-2.01505 	-1.69140 	-1.08630 	-1.38965 	-1.09395 
-2.50530 	-3.77335 	-5.21225 	-4.88635 	-4.03820 	-2.78880 	-5.75460 	-5.11370 	-3.86675 	-2.63145 	-5.86725 	-5.32555 	-3.64175 	-2.59900 	-4.96915 	-4.76420 	-3.69680 	-1.17460 	-3.84880 	-3.33655 	-2.77125 	-1.03260 	-2.02675 	-1.69155 	-1.09615 	-1.38770 	-1.08720 
-2.62720 	-3.92440 	-5.41485 	-5.07770 	-4.21870 	-2.91670 	-5.94465 	-5.25825 	-4.02945 	-2.74715 	-5.99410 	-5.44095 	-3.72995 	-2.62845 	-5.03070 	-4.82535 	-3.71530 	-1.18360 	-3.88690 	-3.36290 	-2.77990 	-1.03115 	-2.03255 	-1.68825 	-1.10455 	-1.38135 	-1.07665 
-2.73795 	-4.06705 	-5.60340 	-5.25555 	-4.38610 	-3.03775 	-6.11910 	-5.39090 	-4.18400 	-2.85745 	-6.10515 	-5.54350 	-3.81320 	-2.65845 	-5.07855 	-4.87535 	-3.72800 	-1.20815 	-3.91420 	-3.38045 	-2.78450 	-1.03405 	-2.03275 	-1.68220 	-1.11180 	-1.37090 	-1.06255 
-2.83720 	-4.20135 	-5.77750 	-5.42000 	-4.53960 	-3.15080 	-6.27805 	-5.51280 	-4.32990 	-2.96120 	-6.20100 	-5.63435 	-3.89305 	-2.68930 	-5.11345 	-4.91485 	-3.73620 	-1.24810 	-3.93135 	-3.38990 	-2.78610 	-1.04185 	-2.02805 	-1.67425 	-1.11835 	-1.35700 	-1.04565 
-2.92495 	-4.32715 	-5.93705 	-5.57115 	-4.67890 	-3.25495 	-6.42175 	-5.62540 	-4.46680 	-3.05730 	-6.28240 	-5.71495 	-3.97170 	-2.72080 	-5.13645 	-4.94485 	-3.74130 	-1.30205 	-3.93905 	-3.39220 	-2.78585 	-1.05480 	-2.01940 	-1.66545 	-1.12490 	-1.34050 	-1.02690 
-3.00120 	-4.44385 	-6.08180 	-5.70910 	-4.80360 	-3.34915 	-6.55040 	-5.72985 	-4.59420 	-3.14505 	-6.34985 	-5.78660 	-4.05110 	-2.75230 	-5.14825 	-4.96620 	-3.74455 	-1.36760 	-3.93800 	-3.38820 	-2.78455 	-1.07310 	-2.00780 	-1.65665 	-1.13210 	-1.32210 	-1.00685 
-3.06580 	-4.55030 	-6.21125 	-5.83335 	-4.91300 	-3.43180 	-6.66375 	-5.82660 	-4.71095 	-3.22355 	-6.40350 	-5.85030 	-4.13260 	-2.78245 	-5.14940 	-4.97935 	-3.74700 	-1.44140 	-3.92865 	-3.37825 	-2.78270 	-1.09610 	-1.99385 	-1.64810 	-1.14000 	-1.30235 	-0.98605 
-3.11820 	-4.64455 	-6.32435 	-5.94290 	-5.00625 	-3.50170 	-6.76110 	-5.91535 	-4.81530 	-3.29245 	-6.44315 	-5.90615 	-4.21700 	-2.80915 	-5.13975 	-4.98455 	-3.74890 	-1.51940 	-3.91090 	-3.36245 	-2.78020 	-1.12270 	-1.97775 	-1.63960 	-1.14840 	-1.28110 	-0.96455 
-3.15780 	-4.72435 	-6.41995 	-6.03665 	-5.08245 	-3.55755 	-6.84140 	-5.99530 	-4.90540 	-3.35185 	-6.46800 	-5.95370 	-4.30410 	-2.82985 	-5.11875 	-4.98130 	-3.75015 	-1.59725 	-3.88455 	-3.34025 	-2.77665 	-1.15115 	-1.95945 	-1.63050 	-1.15665 	-1.25795 	-0.94180 
-3.18380 	-4.78735 	-6.49680 	-6.11325 	-5.14130 	-3.59855 	-6.90335 	-6.06500 	-4.98005 	-3.40220 	-6.47720 	-5.99170 	-4.39350 	-2.84180 	-5.08570 	-4.96920 	-3.75040 	-1.67065 	-3.84900 	-3.31100 	-2.77110 	-1.17965 	-1.93840 	-1.61965 	-1.16375 	-1.23235 	-0.91715 
-3.19565 	-4.83140 	-6.55360 	-6.17175 	-5.18330 	-3.62460 	-6.94575 	-6.12310 	-5.03880 	-3.44445 	-6.46965 	-6.01870 	-4.48430 	-2.84285 	-5.03980 	-4.94725 	-3.74905 	-1.73600 	-3.80375 	-3.27390 	-2.76280 	-1.20625 	-1.91400 	-1.60605 	-1.16860 	-1.20315 	-0.88945 
-3.19295 	-4.85490 	-6.58945 	-6.21160 	-5.20950 	-3.63640 	-6.96760 	-6.16825 	-5.08205 	-3.47995 	-6.44445 	-6.03300 	-4.57525 	-2.83170 	-4.98005 	-4.91495 	-3.74555 	-1.79065 	-3.74815 	-3.22825 	-2.75115 	-1.22960 	-1.88560 	-1.58850 	-1.17025 	-1.16975 	-0.85780 
-3.17580 	-4.85700 	-6.60390 	-6.23265 	-5.22155 	-3.63530 	-6.96815 	-6.19925 	-5.11110 	-3.51005 	-6.40080 	-6.03310 	-4.66500 	-2.80825 	-4.90595 	-4.87165 	-3.73970 	-1.83335 	-3.68185 	-3.17345 	-2.73570 	-1.24875 	-1.85245 	-1.56630 	-1.16785 	-1.13135 	-0.82130 
-3.14475 	-4.83755 	-6.59690 	-6.23515 	-5.22120 	-3.62345 	-6.94705 	-6.21530 	-5.12720 	-3.53610 	-6.33820 	-6.01790 	-4.75180 	-2.77345 	-4.81705 	-4.81710 	-3.73150 	-1.86465 	-3.60460 	-3.10925 	-2.71635 	-1.26360 	-1.81415 	-1.53885 	-1.16090 	-1.08765 	-0.77940 
-3.10060 	-4.79735 	-6.56880 	-6.21975 	-5.21040 	-3.60325 	-6.90445 	-6.21580 	-5.13200 	-3.55920 	-6.25640 	-5.98660 	-4.83365 	-2.72965 	-4.71330 	-4.75135 	-3.72110 	-1.88640 	-3.51640 	-3.03570 	-2.69315 	-1.27475 	-1.77030 	-1.50585 	-1.14910 	-1.03840 	-0.73180 
-3.04460 	-4.73770 	-6.52025 	-6.18745 	-5.19065 	-3.57695 	-6.84070 	-6.20050 	-5.12675 	-3.57990 	-6.15565 	-5.93895 	-4.90850 	-2.67995 	-4.59480 	-4.67465 	-3.70895 	-1.90175 	-3.41725 	-2.95270 	-2.66620 	-1.28305 	-1.72045 	-1.46715 	-1.13230 	-0.98360 	-0.67840 
-2.97810 	-4.66085 	-6.45240 	-6.13925 	-5.16340 	-3.54650 	-6.75650 	-6.16920 	-5.11285 	-3.59875 	-6.03625 	-5.87525 	-4.97445 	-2.62845 	-4.46185 	-4.58740 	-3.69560 	-1.91475 	-3.30730 	-2.86070 	-2.63585 	-1.28985 	-1.66435 	-1.42280 	-1.11075 	-0.92330 	-0.61935 
-2.90245 	-4.56935 	-6.36670 	-6.07665 	-5.12990 	-3.51350 	-6.65300 	-6.12205 	-5.09125 	-3.61575 	-5.89895 	-5.79605 	-5.02975 	-2.57945 	-4.31520 	-4.49010 	-3.68165 	-1.92955 	-3.18685 	-2.75995 	-2.60210 	-1.29640 	-1.60185 	-1.37290 	-1.08475 	-0.85785 	-0.55470 
-2.81895 	-4.46595 	-6.26455 	-6.00070 	-5.09105 	-3.47925 	-6.53120 	-6.05935 	-5.06285 	-3.63105 	-5.74455 	-5.70230 	-5.07280 	-2.53730 	-4.15540 	-4.38335 	-3.66745 	-1.94990 	-3.05625 	-2.65095 	-2.56530 	-1.30370 	-1.53270 	-1.31770 	-1.05475 	-0.78745 	-0.48495 
-2.72895 	-4.35350 	-6.14765 	-5.91275 	-5.04775 	-3.44460 	-6.39250 	-5.98140 	-5.02835 	-3.64435 	-5.57390 	-5.59510 	-5.10245 	-2.50595 	-3.98325 	-4.26755 	-3.65310 	-1.97900 	-2.91580 	-2.53415 	-2.52535 	-1.31265 	-1.45680 	-1.25750 	-1.02130 	-0.71255 	-0.41055 
-2.63355 	-4.23460 	-6.01745 	-5.81415 	-5.00060 	-3.41020 	-6.23805 	-5.88875 	-4.98825 	-3.65535 	-5.38790 	-5.47540 	-5.11810 	-2.48855 	-3.79950 	-4.14285 	-3.63830 	-2.01890 	-2.76590 	-2.40980 	-2.48220 	-1.32380 	-1.37400 	-1.19240 	-0.98480 	-0.63345 	-0.33175 
-2.53375 	-4.11165 	-5.87560 	-5.70600 	-4.95010 	-3.37665 	-6.06910 	-5.78200 	-4.94280 	-3.66355 	-5.18725 	-5.34400 	-5.11940 	-2.48705 	-3.60480 	-4.00940 	-3.62235 	-2.07110 	-2.60660 	-2.27820 	-2.43545 	-1.33740 	-1.28415 	-1.12260 	-0.94560 	-0.55030 	-0.24910 
-2.43100 	-3.98675 	-5.72350 	-5.58965 	-4.89675 	-3.34475 	-5.88695 	-5.66200 	-4.89215 	-3.66860 	-4.97265 	-5.20165 	-5.10660 	-2.50250 	-3.39955 	-3.86705 	-3.60430 	-2.13620 	-2.43830 	-2.13955 	-2.38495 	-1.35350 	-1.18710 	-1.04805 	-0.90385 	-0.46335 	-0.16305 
-2.32630 	-3.86155 	-5.56275 	-5.46645 	-4.84080 	-3.31530 	-5.69270 	-5.52970 	-4.83660 	-3.67035 	-4.74480 	-5.04870 	-5.08005 	-2.53460 	-3.18415 	-3.71565 	-3.58305 	-2.21450 	-2.26110 	-1.99405 	-2.33020 	-1.37200 	-1.08285 	-0.96885 	-0.85975 	-0.37285 	-0.07405 
-2.22125 	-3.73740 	-5.39470 	-5.33765 	-4.78265 	-3.28935 	-5.48750 	-5.38610 	-4.77655 	-3.66875 	-4.50410 	-4.88580 	-5.04020 	-2.58215 	-2.95910 	-3.55500 	-3.55745 	-2.30580 	-2.07525 	-1.84190 	-2.27085 	-1.39245 	-0.97170 	-0.88505 	-0.81345 	-0.27920 	0.01730 
-2.11715 	-3.61530 	-5.22070 	-5.20430 	-4.72210 	-3.26770 	-5.27260 	-5.23220 	-4.71245 	-3.66415 	-4.25130 	-4.71315 	-4.98730 	-2.64330 	-2.72470 	-3.38505 	-3.52635 	-2.40985 	-1.88110 	-1.68340 	-2.20665 	-1.41440 	-0.85405 	-0.79705 	-0.76510 	-0.18275 	0.11025 
-2.01525 	-3.49540 	-5.04190 	-5.06735 	-4.65890 	-3.25080 	-5.04875 	-5.06875 	-4.64460 	-3.65680 	-3.98695 	-4.53095 	-4.92155 	-2.71545 	-2.48130 	-3.20560 	-3.48855 	-2.52550 	-1.67905 	-1.51870 	-2.13710 	-1.43695 	-0.73040 	-0.70495 	-0.71480 	-0.08400 	0.20415 
-1.91650 	-3.37760 	-4.85915 	-4.92705 	-4.59250 	-3.23845 	-4.81675 	-4.89635 	-4.57300 	-3.64690 	-3.71150 	-4.33925 	-4.84260 	-2.79570 	-2.22915 	-3.01665 	-3.44290 	-2.65150 	-1.46960 	-1.34830 	-2.06190 	-1.45925 	-0.60155 	-0.60905 	-0.66240 	0.01670 	0.29820 
-1.82140 	-3.26100 	-4.67285 	-4.78365 	-4.52195 	-3.22960 	-4.57705 	-4.71530 	-4.49715 	-3.63450 	-3.42555 	-4.13810 	-4.75005 	-2.88115 	-1.96845 	-2.81790 	-3.38835 	-2.78595 	-1.25310 	-1.17220 	-1.98065 	-1.48030 	-0.46805 	-0.50940 	-0.60795 	0.11910 	0.39205 
-1.72990 	-3.14445 	-4.48320 	-4.63665 	-4.44625 	-3.22235 	-4.32985 	-4.52575 	-4.41590 	-3.61925 	-3.12950 	-3.92760 	-4.64330 	-2.96865 	-1.69930 	-2.60935 	-3.32405 	-2.92670 	-1.02975 	-0.99050 	-1.89290 	-1.49940 	-0.33045 	-0.40625 	-0.55105 	0.22320 	0.48535 
-1.64190 	-3.02650 	-4.28985 	-4.48545 	-4.36455 	-3.21470 	-4.07525 	-4.32760 	-4.32785 	-3.60060 	-2.82375 	-3.70775 	-4.52165 	-3.05555 	-1.42175 	-2.39085 	-3.24930 	-3.07085 	-0.80010 	-0.80335 	-1.79835 	-1.51570 	-0.18935 	-0.29950 	-0.49155 	0.32900 	0.57780 
-1.55675 	-2.90595 	-4.09265 	-4.32955 	-4.27595 	-3.20440 	-3.81320 	-4.12080 	-4.23145 	-3.57750 	-2.50885 	-3.47890 	-4.38455 	-3.13960 	-1.13605 	-2.16245 	-3.16355 	-3.21550 	-0.56440 	-0.61080 	-1.69690 	-1.52855 	-0.04525 	-0.18955 	-0.42925 	0.43665 	0.66940 
-1.47430 	-2.78200 	-3.89125 	-4.16825 	-4.18020 	-3.18960 	-3.54400 	-3.90545 	-4.12530 	-3.54900 	-2.18560 	-3.24155 	-4.23160 	-3.21915 	-0.84265 	-1.92465 	-3.06665 	-3.35740 	-0.32335 	-0.41320 	-1.58860 	-1.53755 	0.10135 	-0.07670 	-0.36420 	0.54605 	0.75950 
-1.39455 	-2.65450 	-3.68550 	-4.00150 	-4.07725 	-3.16900 	-3.26790 	-3.68185 	-4.00830 	-3.51410 	-1.85490 	-2.99645 	-4.06320 	-3.29350 	-0.54240 	-1.67805 	-2.95865 	-3.49315 	-0.07780 	-0.21100 	-1.47395 	-1.54220 	0.24965 	0.03860 	-0.29670 	0.65690 	0.84770 
-1.31765 	-2.52385 	-3.47565 	-3.82945 	-3.96735 	-3.14155 	-2.98545 	-3.45045 	-3.87975 	-3.47205 	-1.51795 	-2.74455 	-3.87995 	-3.36255 	-0.23615 	-1.42355 	-2.83980 	-3.61960 	0.17115 	-0.00490 	-1.35350 	-1.54210 	0.39915 	0.15545 	-0.22715 	0.76885 	0.93310 
-1.24395 	-2.39100 	-3.26190 	-3.65215 	-3.85085 	-3.10670 	-2.69720 	-3.21185 	-3.73930 	-3.42220 	-1.17590 	-2.48660 	-3.68315 	-3.42645 	0.07480 	-1.16225 	-2.71045 	-3.73330 	0.42270 	0.20465 	-1.22780 	-1.53675 	0.54925 	0.27335 	-0.15585 	0.88145 	1.01495 
-1.17380 	-2.25700 	-3.04430 	-3.47005 	-3.72810 	-3.06400 	-2.40355 	-2.96615 	-3.58685 	-3.36450 	-0.82985 	-2.22315 	-3.47415 	-3.48525 	0.38960 	-0.89495 	-2.57110 	-3.83110 	0.67590 	0.41710 	-1.09755 	-1.52535 	0.69980 	0.39185 	-0.08315 	0.99440 	1.09290 
-1.10740 	-2.12300 	-2.82295 	-3.28315 	-3.59925 	-3.01330 	-2.10475 	-2.71355 	-3.42240 	-3.29925 	-0.48060 	-1.95445 	-3.25480 	-3.53875 	0.70720 	-0.62260 	-2.42230 	-3.91010 	0.93010 	0.63215 	-0.96295 	-1.50735 	0.85080 	0.51070 	-0.00910 	1.10765 	1.16690 
-1.04475 	-1.98995 	-2.59760 	-3.09155 	-3.46440 	-2.95440 	-1.80075 	-2.45400 	-3.24635 	-3.22740 	-0.12860 	-1.68055 	-3.02690 	-3.58595 	1.02685 	-0.34580 	-2.26480 	-3.96765 	1.18490 	0.84950 	-0.82440 	-1.48210 	1.00245 	0.62990 	0.06645 	1.22115 	1.23720 
-0.98560 	-1.85845 	-2.36790 	-2.89500 	-3.32360 	-2.88735 	-1.49140 	-2.18725 	-3.05940 	-3.15005 	0.22565 	-1.40140 	-2.79260 	-3.62505 	1.34790 	-0.06525 	-2.09950 	-4.00200 	1.43985 	1.06895 	-0.68215 	-1.44925 	1.15495 	0.74945 	0.14355 	1.33490 	1.30445 
-0.92975 	-1.72930 	-2.13365 	-2.69340 	-3.17675 	-2.81260 	-1.17665 	-1.91345 	-2.86280 	-3.06845 	0.58180 	-1.11690 	-2.55405 	-3.65365 	1.66965 	0.21815 	-1.92760 	-4.01180 	1.69455 	1.29015 	-0.53690 	-1.40865 	1.30855 	0.86935 	0.22240 	1.44905 	1.36910 
-0.87680 	-1.60275 	-1.89445 	-2.48685 	-3.02415 	-2.73065 	-0.85660 	-1.63290 	-2.65775 	-2.98375 	0.93925 	-0.82735 	-2.31330 	-3.66885 	1.99115 	0.50365 	-1.75055 	-3.99655 	1.94845 	1.51245 	-0.38935 	-1.36060 	1.46305 	0.98950 	0.30295 	1.56325 	1.43170 
-0.82640 	-1.47920 	-1.65030 	-2.27525 	-2.86590 	-2.64250 	-0.53130 	-1.34620 	-2.44565 	-2.89645 	1.29750 	-0.53330 	-2.07235 	-3.66765 	2.31150 	0.79000 	-1.56995 	-3.95650 	2.20085 	1.73520 	-0.24025 	-1.30555 	1.61825 	1.10950 	0.38525 	1.67715 	1.49240 
-0.77855 	-1.35865 	-1.40115 	-2.05885 	-2.70210 	-2.54925 	-0.20115 	-1.05405 	-2.22755 	-2.80665 	1.65575 	-0.23570 	-1.83275 	-3.64730 	2.62970 	1.07610 	-1.38750 	-3.89240 	2.45100 	1.95750 	-0.09050 	-1.24425 	1.77350 	1.22905 	0.46915 	1.79015 	1.55150 
-0.73290 	-1.24095 	-1.14745 	-1.83800 	-2.53295 	-2.45180 	0.13320 	-0.75755 	-2.00450 	-2.71385 	2.01310 	0.06425 	-1.59600 	-3.60565 	2.94450 	1.36050 	-1.20460 	-3.80535 	2.69800 	2.17850 	0.05910 	-1.17760 	1.92810 	1.34770 	0.55465 	1.90160 	1.60895 
-0.68945 	-1.12585 	-0.88965 	-1.61315 	-2.35880 	-2.35130 	0.47105 	-0.45785 	-1.77725 	-2.61735 	2.36840 	0.36515 	-1.36295 	-3.54150 	3.25475 	1.64205 	-1.02255 	-3.69690 	2.94095 	2.39745 	0.20820 	-1.10645 	2.08125 	1.46520 	0.64175 	2.01080 	1.66480 
-0.64820 	-1.01285 	-0.62860 	-1.38505 	-2.18015 	-2.24880 	0.81140 	-0.15625 	-1.54670 	-2.51645 	2.72075 	0.66525 	-1.13435 	-3.45500 	3.55940 	1.91950 	-0.84225 	-3.56850 	3.17920 	2.61345 	0.35650 	-1.03145 	2.23210 	1.58135 	0.73030 	2.11710 	1.71890 
-0.60915 	-0.90155 	-0.36515 	-1.15445 	-1.99765 	-2.14500 	1.15325 	0.14560 	-1.31385 	-2.41065 	3.06900 	0.96290 	-0.91055 	-3.34720 	3.85755 	2.19175 	-0.66430 	-3.42170 	3.41195 	2.82605 	0.50400 	-0.95335 	2.37960 	1.69590 	0.82005 	2.21980 	1.77105 
-0.57225 	-0.79110 	-0.10035 	-0.92230 	-1.81200 	-2.04055 	1.49545 	0.44620 	-1.07970 	-2.29930 	3.41225 	1.25640 	-0.69155 	-3.22055 	4.14845 	2.45800 	-0.48895 	-3.25815 	3.63860 	3.03470 	0.65085 	-0.87260 	2.52310 	1.80885 	0.91085 	2.31835 	1.82100 
-0.53740 	-0.68080 	0.16495 	-0.68955 	-1.62440 	-1.93590 	1.83690 	0.74400 	-0.84540 	-2.18180 	3.74970 	1.54420 	-0.47710 	-3.07760 	4.43160 	2.71760 	-0.31590 	-3.07945 	3.85885 	3.23915 	0.79725 	-0.78950 	2.66165 	1.92005 	1.00230 	2.41250 	1.86855 
-0.50450 	-0.56990 	0.42985 	-0.45720 	-1.43600 	-1.83125 	2.17665 	1.03755 	-0.61240 	-2.05740 	4.08060 	1.82525 	-0.26685 	-2.92120 	4.70670 	2.97020 	-0.14460 	-2.88715 	4.07220 	3.43905 	0.94335 	-0.70410 	2.79495 	2.02955 	1.09410 	2.50200 	1.91365 
-0.47325 	-0.45750 	0.69355 	-0.22625 	-1.24820 	-1.72655 	2.51345 	1.32565 	-0.38200 	-1.92585 	4.40455 	2.09855 	-0.06055 	-2.75370 	4.97365 	3.21560 	0.02565 	-2.68275 	4.27860 	3.63430 	1.08950 	-0.61665 	2.92240 	2.13755 	1.18595 	2.58685 	1.95620 
-0.44345 	-0.34315 	0.95530 	0.00265 	-1.06210 	-1.62180 	2.84640 	1.60735 	-0.15560 	-1.78730 	4.72105 	2.36360 	0.14205 	-2.57690 	5.23245 	3.45375 	0.19560 	-2.46785 	4.47785 	3.82495 	1.23575 	-0.52685 	3.04400 	2.24420 	1.27765 	2.66725 	1.99625 
-0.41490 	-0.22650 	1.21455 	0.22860 	-0.87880 	-1.51700 	3.17445 	1.88205 	0.06565 	-1.64220 	5.02980 	2.62030 	0.34090 	-2.39205 	5.48320 	3.68480 	0.36605 	-2.24440 	4.67015 	4.01075 	1.38230 	-0.43475 	3.15965 	2.34960 	1.36910 	2.74345 	2.03385 
-0.38735 	-0.10750 	1.47080 	0.45125 	-0.69905 	-1.41225 	3.49680 	2.14970 	0.28105 	-1.49155 	5.33065 	2.86900 	0.53625 	-2.20040 	5.72600 	3.90885 	0.53755 	-2.01430 	4.85550 	4.19190 	1.52925 	-0.34015 	3.26975 	2.45405 	1.46020 	2.81565 	2.06915 
-0.36065 	0.01360 	1.72345 	0.67045 	-0.52305 	-1.30775 	3.81275 	2.41055 	0.49035 	-1.33645 	5.62360 	3.11050 	0.72845 	-2.00325 	5.96105 	4.12640 	0.71065 	-1.78005 	5.03415 	4.36845 	1.67665 	-0.24300 	3.37455 	2.55765 	1.55070 	2.88405 	2.10200 
-0.33460 	0.13630 	1.97235 	0.88625 	-0.35070 	-1.20375 	4.12170 	2.66545 	0.69360 	-1.17840 	5.90865 	3.34605 	0.91840 	-1.80240 	6.18850 	4.33785 	0.88580 	-1.54440 	5.20635 	4.54060 	1.82450 	-0.14325 	3.47455 	2.66045 	1.64025 	2.94865 	2.13190 
-0.30915 	0.25980 	2.21705 	1.09885 	-0.18155 	-1.10080 	4.42325 	2.91540 	0.89125 	-1.01900 	6.18610 	3.57700 	1.10725 	-1.60035 	6.40875 	4.54375 	1.06335 	-1.31055 	5.37265 	4.70850 	1.97260 	-0.04085 	3.57040 	2.76235 	1.72850 	3.00935 	2.15845 
-0.28430 	0.38305 	2.45740 	1.30835 	-0.01495 	-0.99915 	4.71705 	3.16140 	1.08385 	-0.86035 	6.45625 	3.80525 	1.29655 	-1.40030 	6.62220 	4.74500 	1.24355 	-1.08195 	5.53335 	4.87240 	2.12080 	0.06395 	3.66275 	2.86320 	1.81480 	3.06595 	2.18090 
-0.26000 	0.50505 	2.69310 	1.51490 	0.14960 	-0.89950 	5.00285 	3.40470 	1.27155 	-0.70455 	6.71955 	4.03240 	1.48800 	-1.20550 	6.82930 	4.94225 	1.42665 	-0.86205 	5.68910 	5.03270 	2.26890 	0.17095 	3.75240 	2.96280 	1.89885 	3.11855 	2.19865 
-0.23640 	0.62440 	2.92370 	1.71840 	0.31260 	-0.80210 	5.28035 	3.64600 	1.45445 	-0.55400 	6.97635 	4.26005 	1.68305 	-1.01910 	7.03055 	5.13650 	1.61290 	-0.65385 	5.84055 	5.18990 	2.41690 	0.28005 	3.84020 	3.06105 	1.98015 	3.16715 	2.21140 
-0.21370 	0.74000 	3.14865 	1.91840 	0.47425 	-0.70720 	5.54915 	3.88580 	1.63215 	-0.41060 	7.22690 	4.48925 	1.88265 	-0.84335 	7.22630 	5.32840 	1.80235 	-0.45970 	5.98825 	5.34425 	2.56470 	0.39105 	3.92695 	3.15785 	2.05860 	3.21210 	2.21905 
-0.19220 	0.85070 	3.36720 	2.11430 	0.63470 	-0.61495 	5.80870 	4.12385 	1.80420 	-0.27590 	7.47100 	4.72020 	2.08710 	-0.67955 	7.41695 	5.51855 	1.99505 	-0.28085 	6.13280 	5.49625 	2.71225 	0.50395 	4.01340 	3.25320 	2.13420 	3.25385 	2.22185 
-0.17235 	0.95545 	3.57820 	2.30520 	0.79345 	-0.52530 	6.05800 	4.35930 	1.97010 	-0.15045 	7.70830 	4.95230 	2.29585 	-0.52745 	7.60245 	5.70700 	2.19055 	-0.11770 	6.27445 	5.64595 	2.85950 	0.61860 	4.09995 	3.34705 	2.20725 	3.29295 	2.22005 
-0.15455 	1.05340 	3.78050 	2.48995 	0.95000 	-0.43785 	6.29625 	4.59080 	2.12955 	-0.03370 	7.93790 	5.18405 	2.50770 	-0.38560 	7.78245 	5.89365 	2.38830 	0.03065 	6.41345 	5.79335 	3.00615 	0.73495 	4.18675 	3.43950 	2.27810 	3.32980 	2.21435 
-0.13920 	1.14405 	3.97275 	2.66725 	1.10365 	-0.35190 	6.52210 	4.81640 	2.28250 	0.07605 	8.15885 	5.41350 	2.72095 	-0.25125 	7.95655 	6.07790 	2.58755 	0.16595 	6.54950 	5.93825 	3.15200 	0.85295 	4.27375 	3.53040 	2.34740 	3.36480 	2.20520 
-0.12655 	1.22735 	4.15375 	2.83600 	1.25360 	-0.26645 	6.73450 	5.03425 	2.42925 	0.18125 	8.36990 	5.63800 	2.93355 	-0.12100 	8.12405 	6.25895 	2.78720 	0.29060 	6.68255 	6.08030 	3.29675 	0.97250 	4.36070 	3.62010 	2.41595 	3.39840 	2.19330 
-0.11665 	1.30340 	4.32230 	2.99515 	1.39920 	-0.18035 	6.93225 	5.24225 	2.57010 	0.28460 	8.56985 	5.85480 	3.14365 	0.00820 	8.28435 	6.43585 	2.98635 	0.40730 	6.81220 	6.21915 	3.44025 	1.09345 	4.44720 	3.70875 	2.48440 	3.43095 	2.17925 
-0.10960 	1.37275 	4.47735 	3.14380 	1.53990 	-0.09290 	7.11435 	5.43845 	2.70575 	0.38855 	8.75735 	6.06115 	3.34925 	0.13895 	8.43655 	6.60755 	3.18380 	0.51855 	6.93800 	6.35425 	3.58230 	1.21560 	4.53280 	3.79640 	2.55345 	3.46270 	2.16350 
-0.10530 	1.43600 	4.61810 	3.28130 	1.67520 	-0.00375 	7.28000 	5.62120 	2.83675 	0.49490 	8.93115 	6.25440 	3.54845 	0.27275 	8.57975 	6.77280 	3.37860 	0.62670 	7.05920 	6.48500 	3.72280 	1.33830 	4.61695 	3.88315 	2.62330 	3.49360 	2.14610 
-0.10375 	1.49370 	4.74390 	3.40705 	1.80465 	0.08685 	7.42830 	5.78905 	2.96345 	0.60440 	9.09015 	6.43225 	3.73975 	0.40995 	8.71310 	6.93035 	3.56955 	0.73355 	7.17505 	6.61060 	3.86130 	1.46135 	4.69875 	3.96860 	2.69395 	3.52355 	2.12705 
-0.10495 	1.54645 	4.85445 	3.52085 	1.92815 	0.17815 	7.55900 	5.94110 	3.08620 	0.71740 	9.23330 	6.59325 	3.92165 	0.55025 	8.83570 	7.07915 	3.75580 	0.84080 	7.28465 	6.73030 	3.99725 	1.58415 	4.77750 	4.05240 	2.76475 	3.55200 	2.10595 
-0.10905 	1.59480 	4.94980 	3.62265 	2.04555 	0.26935 	7.67220 	6.07690 	3.20505 	0.83310 	9.36020 	6.73640 	4.09305 	0.69290 	8.94695 	7.21815 	3.93635 	0.95010 	7.38735 	6.84345 	4.13020 	1.70640 	4.85265 	4.13410 	2.83535 	3.57875 	2.08275 
-0.11585 	1.63925 	5.03045 	3.71285 	2.15705 	0.35965 	7.76820 	6.19675 	3.32025 	0.95065 	9.47070 	6.86175 	4.25300 	0.83730 	9.04660 	7.34690 	4.11055 	1.06285 	7.48255 	6.94965 	4.25935 	1.82795 	4.92380 	4.21320 	2.90505 	3.60345 	2.05745 
-0.12520 	1.67995 	5.09725 	3.79205 	2.26285 	0.44835 	7.84795 	6.30130 	3.43175 	1.06865 	9.56520 	6.97005 	4.40085 	0.98320 	9.13470 	7.46510 	4.27770 	1.18045 	7.57015 	7.04870 	4.38435 	1.94850 	4.99080 	4.28935 	2.97330 	3.62605 	2.03015 
-0.13695 	1.71700 	5.15140 	3.86120 	2.36345 	0.53470 	7.91255 	6.39175 	3.53965 	1.18580 	9.64430 	7.06235 	4.53625 	1.13060 	9.21140 	7.57270 	4.43710 	1.30375 	7.64985 	7.14060 	4.50455 	2.06775 	5.05380 	4.36230 	3.03980 	3.64630 	2.00100 
-0.15075 	1.75020 	5.19405 	3.92150 	2.45915 	0.61840 	7.96350 	6.46975 	3.64385 	1.30100 	9.70895 	7.14025 	4.65925 	1.27990 	9.27725 	7.66980 	4.58845 	1.43330 	7.72190 	7.22550 	4.61965 	2.18540 	5.11315 	4.43190 	3.10435 	3.66420 	1.97005 
-0.16640 	1.77905 	5.22650 	3.97385 	2.55050 	0.69905 	8.00190 	6.53665 	3.74420 	1.41350 	9.76010 	7.20510 	4.77050 	1.43145 	9.33255 	7.75665 	4.73110 	1.56890 	7.78645 	7.30365 	4.72930 	2.30090 	5.16920 	4.49790 	3.16690 	3.67955 	1.93740 
-0.18350 	1.80270 	5.24985 	4.01935 	2.63785 	0.77680 	8.02920 	6.59385 	3.84065 	1.52285 	9.79870 	7.25820 	4.87100 	1.58515 	9.37795 	7.83330 	4.86490 	1.70970 	7.84360 	7.37520 	4.83310 	2.41370 	5.22245 	4.56030 	3.22770 	3.69230 	1.90290 
-0.20205 	1.82015 	5.26510 	4.05860 	2.72140 	0.85175 	8.04630 	6.64230 	3.93280 	1.62910 	9.82550 	7.30050 	4.96215 	1.74070 	9.41355 	7.89985 	4.98960 	1.85445 	7.89355 	7.44015 	4.93085 	2.52310 	5.27320 	4.61900 	3.28685 	3.70210 	1.86645 
-0.22190 	1.83010 	5.27275 	4.09225 	2.80125 	0.92415 	8.05390 	6.68275 	4.02040 	1.73230 	9.84105 	7.33275 	5.04565 	1.89675 	9.43975 	7.95620 	5.10505 	2.00130 	7.93620 	7.49840 	5.02205 	2.62855 	5.32155 	4.67375 	3.34445 	3.70880 	1.82790 
-0.24315 	1.83165 	5.27335 	4.12055 	2.87705 	0.99395 	8.05255 	6.71560 	4.10300 	1.83240 	9.84570 	7.35545 	5.12285 	2.05140 	9.45660 	8.00230 	5.21100 	2.14795 	7.97160 	7.54960 	5.10640 	2.72935 	5.36755 	4.72430 	3.40035 	3.71210 	1.78700 
-0.26605 	1.82380 	5.26695 	4.14360 	2.94825 	1.06095 	8.04245 	6.74110 	4.18005 	1.92930 	9.83965 	7.36900 	5.19480 	2.20200 	9.46395 	8.03795 	5.30710 	2.29195 	7.99935 	7.59335 	5.18325 	2.82490 	5.41070 	4.77020 	3.45415 	3.71160 	1.74350 
-0.29070 	1.80580 	5.25370 	4.16140 	3.01410 	1.12460 	8.02375 	6.75910 	4.25115 	2.02245 	9.82290 	7.37370 	5.26195 	2.34550 	9.46180 	8.06300 	5.39265 	2.43045 	8.01910 	7.62895 	5.25215 	2.91460 	5.45035 	4.81090 	3.50525 	3.70690 	1.69715 
-0.31735 	1.77770 	5.23355 	4.17365 	3.07355 	1.18390 	7.99650 	6.76945 	4.31565 	2.11135 	9.79540 	7.36970 	5.32400 	2.47880 	9.44990 	8.07720 	5.46695 	2.56070 	8.03045 	7.65575 	5.31215 	2.99780 	5.48550 	4.84575 	3.55275 	3.69740 	1.64775 
-0.34635 	1.73960 	5.20610 	4.18000 	3.12560 	1.23790 	7.96055 	6.77165 	4.37310 	2.19510 	9.75705 	7.35705 	5.38030 	2.59905 	9.42795 	8.08035 	5.52910 	2.68035 	8.03265 	7.67290 	5.36270 	3.07405 	5.51510 	4.87405 	3.59570 	3.68260 	1.59520 
-0.37805 	1.69205 	5.17115 	4.17980 	3.16875 	1.28530 	7.91570 	6.76515 	4.42285 	2.27265 	9.70755 	7.33555 	5.42975 	2.70385 	9.39550 	8.07205 	5.57865 	2.78745 	8.02515 	7.67965 	5.40320 	3.14295 	5.53780 	4.89505 	3.63325 	3.66180 	1.53925 
-0.41290 	1.63570 	5.12810 	4.17220 	3.20140 	1.32505 	7.86135 	6.74940 	4.46385 	2.34300 	9.64645 	7.30475 	5.47095 	2.79145 	9.35200 	8.05200 	5.61520 	2.88080 	8.00715 	7.67515 	5.43310 	3.20435 	5.55225 	4.90805 	3.66460 	3.63435 	1.47965 
-0.45145 	1.57150 	5.07630 	4.15625 	3.22185 	1.35595 	7.79695 	6.72355 	4.49500 	2.40515 	9.57340 	7.26400 	5.50275 	2.86055 	9.29695 	8.01975 	5.63885 	2.95980 	7.97785 	7.65865 	5.45220 	3.25810 	5.55695 	4.91235 	3.68885 	3.59930 	1.41600 
-0.49440 	1.50015 	5.01495 	4.13085 	3.22825 	1.37670 	7.72170 	6.68675 	4.51465 	2.45795 	9.48740 	7.21230 	5.52365 	2.91060 	9.22970 	7.97480 	5.64990 	3.02435 	7.93640 	7.62935 	5.46035 	3.30420 	5.55040 	4.90725 	3.70520 	3.55610 	1.34780 
-0.54275 	1.42230 	4.94305 	4.09475 	3.21915 	1.38630 	7.63455 	6.63785 	4.52145 	2.50030 	9.38770 	7.14860 	5.53240 	2.94130 	9.14935 	7.91660 	5.64865 	3.07460 	7.88195 	7.58640 	5.45750 	3.34280 	5.53140 	4.89205 	3.71290 	3.50410 	1.27470 
-0.59720 	1.33845 	4.85970 	4.04685 	3.19345 	1.38380 	7.53440 	6.57590 	4.51415 	2.53075 	9.27340 	7.07160 	5.52830 	2.95270 	9.05515 	7.84455 	5.63540 	3.11090 	7.81380 	7.52930 	5.44380 	3.37385 	5.49885 	4.86630 	3.71130 	3.44295 	1.19645 
-0.65850 	1.24925 	4.76420 	3.98630 	3.15065 	1.36875 	7.42045 	6.49975 	4.49200 	2.54790 	9.14370 	6.98040 	5.51075 	2.94535 	8.94665 	7.75835 	5.61045 	3.13355 	7.73140 	7.45770 	5.41945 	3.39755 	5.45220 	4.82975 	3.70000 	3.37275 	1.11315 
-0.72710 	1.15490 	4.65610 	3.91255 	3.09065 	1.34115 	7.29190 	6.40880 	4.45490 	2.55045 	8.99820 	6.87425 	5.47980 	2.92020 	8.82325 	7.65775 	5.57420 	3.14315 	7.63470 	7.37145 	5.38470 	3.41400 	5.39130 	4.78225 	3.67865 	3.29385 	1.02540 
-0.80310 	1.05580 	4.53545 	3.82535 	3.01370 	1.30170 	7.14860 	6.30260 	4.40275 	2.53745 	8.83670 	6.75275 	5.43570 	2.87835 	8.68515 	7.54285 	5.52700 	3.14025 	7.52370 	7.27090 	5.33990 	3.42320 	5.31635 	4.72410 	3.64730 	3.20690 	0.93400 
-0.88625 	0.95225 	4.40255 	3.72455 	2.92045 	1.25125 	6.99050 	6.18095 	4.33590 	2.50860 	8.65940 	6.61590 	5.37870 	2.82160 	8.53245 	7.41395 	5.46940 	3.12615 	7.39890 	7.15660 	5.28550 	3.42535 	5.22825 	4.65580 	3.60620 	3.11295 	0.84015 
-0.97610 	0.84440 	4.25790 	3.61045 	2.81160 	1.19125 	6.81800 	6.04395 	4.25425 	2.46445 	8.46685 	6.46390 	5.30905 	2.75215 	8.36585 	7.27175 	5.40180 	3.10240 	7.26120 	7.02940 	5.22210 	3.42055 	5.12820 	4.57810 	3.55595 	3.01325 	0.74530 
-1.07190 	0.73220 	4.10240 	3.48320 	2.68840 	1.12335 	6.63175 	5.89180 	4.15795 	2.40580 	8.25990 	6.29725 	5.22680 	2.67265 	8.18595 	7.11675 	5.32445 	3.07105 	7.11155 	6.89025 	5.15030 	3.40915 	5.01760 	4.49195 	3.49745 	2.90900 	0.65090 
-1.17290 	0.61560 	3.93675 	3.34340 	2.55215 	1.04905 	6.43255 	5.72490 	4.04695 	2.33350 	8.03915 	6.11660 	5.13200 	2.58625 	7.99360 	6.94970 	5.23745 	3.03455 	6.95075 	6.74025 	5.07055 	3.39140 	4.89810 	4.39815 	3.43165 	2.80170 	0.55840 
-1.27845 	0.49415 	3.76160 	3.19125 	2.40420 	0.96945 	6.22115 	5.54345 	3.92105 	2.24830 	7.80520 	5.92240 	5.02420 	2.49600 	7.78915 	6.77095 	5.14060 	2.99490 	6.77955 	6.57990 	4.98305 	3.36735 	4.77100 	4.29725 	3.35945 	2.69240 	0.46875 
-1.38795 	0.36710 	3.57730 	3.02720 	2.24565 	0.88500 	5.99790 	5.34780 	3.78015 	2.15040 	7.55840 	5.71525 	4.90260 	2.40465 	7.57265 	6.58050 	5.03320 	2.95380 	6.59825 	6.40945 	4.88745 	3.33705 	4.63710 	4.18970 	3.28155 	2.58160 	0.38240 
-1.50100 	0.23375 	3.38405 	2.85140 	2.07770 	0.79565 	5.76335 	5.13820 	3.62435 	2.04030 	7.29885 	5.49540 	4.76635 	2.31415 	7.34405 	6.37830 	4.91460 	2.91225 	6.40685 	6.22915 	4.78325 	3.30025 	4.49685 	4.07520 	3.19835 	2.46960 	0.29950 
-1.61720 	0.09360 	3.18215 	2.66445 	1.90115 	0.70090 	5.51805 	4.91535 	3.45425 	1.91855 	7.02690 	5.26350 	4.61480 	2.22575 	7.10330 	6.16435 	4.78460 	2.87060 	6.20545 	6.03885 	4.67010 	3.25685 	4.35060 	3.95375 	3.11005 	2.35635 	0.21950 
-1.73590 	-0.05330 	2.97210 	2.46710 	1.71750 	0.60020 	5.26275 	4.68025 	3.27140 	1.78630 	6.74300 	5.02050 	4.44770 	2.13990 	6.85070 	5.93900 	4.64335 	2.82875 	5.99435 	5.83900 	4.54780 	3.20675 	4.19850 	3.82510 	3.01700 	2.24150 	0.14180 
-1.85640 	-0.20655 	2.75470 	2.26055 	1.52805 	0.49335 	4.99860 	4.43420 	3.07775 	1.64525 	6.44815 	4.76755 	4.26560 	2.05635 	6.58690 	5.70310 	4.49175 	2.78605 	5.77405 	5.63020 	4.41640 	3.15045 	4.04075 	3.68930 	2.91935 	2.12510 	0.06570 
-1.97795 	-0.36505 	2.53085 	2.04610 	1.33455 	0.38030 	4.72690 	4.17885 	2.87580 	1.49760 	6.14355 	4.50625 	4.06945 	1.97425 	6.31285 	5.45775 	4.33085 	2.74155 	5.54560 	5.41325 	4.27655 	3.08820 	3.87750 	3.54665 	2.81735 	2.00680 	-0.00955 
-2.09965 	-0.52750 	2.30180 	1.82555 	1.13880 	0.26170 	4.44920 	3.91575 	2.66830 	1.34585 	5.83080 	4.23805 	3.86070 	1.89265 	6.02990 	5.20450 	4.16230 	2.69415 	5.30995 	5.18925 	4.12880 	3.02075 	3.70905 	3.39755 	2.71110 	1.88685 	-0.08430 
-2.22065 	-0.69205 	2.06885 	1.60045 	0.94285 	0.13870 	4.16700 	3.64660 	2.45810 	1.19270 	5.51160 	3.96465 	3.64155 	1.81060 	5.73965 	4.94485 	3.98740 	2.64255 	5.06840 	4.95940 	3.97410 	2.94855 	3.53585 	3.24255 	2.60080 	1.76530 	-0.15845 
-2.33985 	-0.85665 	1.83335 	1.37285 	0.74875 	0.01295 	3.88195 	3.37315 	2.24810 	1.04080 	5.18790 	3.68755 	3.41465 	1.72745 	5.44395 	4.68055 	3.80765 	2.58560 	4.82250 	4.72505 	3.81340 	2.87210 	3.35845 	3.08245 	2.48690 	1.64265 	-0.23180 
-2.45605 	-1.01915 	1.59700 	1.14475 	0.55845 	-0.11355 	3.59580 	3.09725 	2.04080 	0.89240 	4.86175 	3.40855 	3.18305 	1.64255 	5.14485 	4.41345 	3.62435 	2.52225 	4.57380 	4.48760 	3.64805 	2.79185 	3.17760 	2.91840 	2.36975 	1.51945 	-0.30365 
-2.56790 	-1.17710 	1.36140 	0.91800 	0.37345 	-0.23890 	3.31035 	2.82080 	1.83840 	0.74940 	4.53535 	3.12935 	2.95015 	1.55595 	4.84440 	4.14535 	3.43860 	2.45200 	4.32400 	4.24860 	3.47935 	2.70820 	2.99430 	2.75160 	2.25025 	1.39665 	-0.37310 
-2.67405 	-1.32835 	1.12820 	0.69460 	0.19485 	-0.36095 	3.02735 	2.54565 	1.64235 	0.61380 	4.21075 	2.85175 	2.71925 	1.46775 	4.54500 	3.87800 	3.25155 	2.37450 	4.07480 	4.00975 	3.30885 	2.62165 	2.80970 	2.58335 	2.12930 	1.27495 	-0.43915 
-2.77300 	-1.47080 	0.89915 	0.47635 	0.02360 	-0.47800 	2.74870 	2.27405 	1.45375 	0.48730 	3.89040 	2.57785 	2.49365 	1.37835 	4.24890 	3.61350 	3.06460 	2.29015 	3.82805 	3.77290 	3.13815 	2.53305 	2.62530 	2.41535 	2.00820 	1.15555 	-0.50070 
-2.86335 	-1.60260 	0.67595 	0.26515 	-0.13950 	-0.58815 	2.47625 	2.00815 	1.27355 	0.37140 	3.57660 	2.30970 	2.27665 	1.28830 	3.95850 	3.35370 	2.87935 	2.19950 	3.58560 	3.54000 	2.96910 	2.44325 	2.44270 	2.24920 	1.88815 	1.03960 	-0.55665 
-2.94395 	-1.72240 	0.46050 	0.06255 	-0.29385 	-0.69030 	2.21175 	1.75035 	1.10210 	0.26705 	3.27145 	2.04965 	2.07105 	1.19835 	3.67595 	3.10070 	2.69760 	2.10335 	3.34935 	3.31300 	2.80330 	2.35315 	2.26370 	2.08655 	1.77060 	0.92840 	-0.60570 
-3.01390 	-1.82945 	0.25405 	-0.13005 	-0.43905 	-0.78350 	1.95660 	1.50255 	0.93950 	0.17450 	2.97685 	1.79970 	1.87925 	1.10920 	3.40315 	2.85620 	2.52095 	2.00240 	3.12080 	3.09355 	2.64225 	2.26380 	2.08985 	1.92875 	1.65665 	0.82305 	-0.64680 
-3.07270 	-1.92385 	0.05765 	-0.31205 	-0.57520 	-0.86765 	1.71185 	1.26630 	0.78530 	0.09275 	2.69425 	1.56145 	1.70275 	1.02135 	3.14130 	2.62180 	2.35105 	1.89730 	2.90110 	2.88305 	2.48700 	2.17575 	1.92275 	1.77690 	1.54725 	0.72450 	-0.67900 
-3.12055 	-2.00635 	-0.12830 	-0.48330 	-0.70300 	-0.94290 	1.47775 	1.04235 	0.63825 	0.02030 	2.42435 	1.33590 	1.54165 	0.93485 	2.89125 	2.39845 	2.18890 	1.78830 	2.69100 	2.68230 	2.33810 	2.08950 	1.76330 	1.63170 	1.44305 	0.63325 	-0.70190 
-3.15790 	-2.07840 	-0.30385 	-0.64440 	-0.82340 	-1.00990 	1.25430 	0.83070 	0.49675 	-0.04510 	2.16725 	1.12325 	1.39515 	0.84955 	2.65305 	2.18645 	2.03500 	1.67585 	2.49070 	2.49175 	2.19600 	2.00520 	1.61230 	1.49340 	1.34405 	0.54950 	-0.71540 
-3.18580 	-2.14215 	-0.46945 	-0.79610 	-0.93755 	-1.06960 	1.04090 	0.63080 	0.35885 	-0.10570 	1.92255 	0.92320 	1.26115 	0.76490 	2.42640 	1.98590 	1.88940 	1.56025 	2.30015 	2.31140 	2.06050 	1.92270 	1.47000 	1.36200 	1.25030 	0.47295 	-0.72000 
-3.20545 	-2.19965 	-0.62610 	-0.93955 	-1.04640 	-1.12285 	0.83670 	0.44165 	0.22290 	-0.16320 	1.68940 	0.73495 	1.13705 	0.68010 	2.21050 	1.79625 	1.75180 	1.44190 	2.11885 	2.14100 	1.93115 	1.84185 	1.33630 	1.23710 	1.16125 	0.40300 	-0.71670 
-3.21830 	-2.25325 	-0.77460 	-1.07570 	-1.15045 	-1.17065 	0.64090 	0.26220 	0.08775 	-0.21865 	1.46690 	0.55750 	1.01985 	0.59460 	2.00435 	1.61675 	1.62160 	1.32155 	1.94615 	1.97975 	1.80725 	1.76260 	1.21090 	1.11820 	1.07640 	0.33880 	-0.70690 
-3.22565 	-2.30495 	-0.91605 	-1.20560 	-1.25020 	-1.21410 	0.45255 	0.09130 	-0.04765 	-0.27240 	1.25385 	0.38985 	0.90685 	0.50800 	1.80700 	1.44655 	1.49805 	1.20060 	1.78135 	1.82710 	1.68800 	1.68470 	1.09315 	1.00470 	0.99510 	0.27940 	-0.69200 
-3.22885 	-2.35635 	-1.05135 	-1.32980 	-1.34570 	-1.25410 	0.27095 	-0.07200 	-0.18355 	-0.32395 	1.04930 	0.23100 	0.79570 	0.42040 	1.61740 	1.28480 	1.38035 	1.08075 	1.62370 	1.68230 	1.57260 	1.60810 	0.98225 	0.89600 	0.91695 	0.22375 	-0.67370 
-3.22885 	-2.40850 	-1.18135 	-1.44905 	-1.43735 	-1.29170 	0.09545 	-0.22855 	-0.32015 	-0.37240 	0.85235 	0.07995 	0.68480 	0.33235 	1.43475 	1.13065 	1.26770 	0.96435 	1.47270 	1.54450 	1.46030 	1.53285 	0.87745 	0.79145 	0.84135 	0.17105 	-0.65360 
-3.22660 	-2.46180 	-1.30675 	-1.56395 	-1.52520 	-1.32760 	-0.07455 	-0.37925 	-0.45715 	-0.41710 	0.66230 	-0.06435 	0.57295 	0.24490 	1.25825 	0.98325 	1.15925 	0.85365 	1.32780 	1.41315 	1.35045 	1.45885 	0.77795 	0.69060 	0.76780 	0.12030 	-0.63305 
-3.22270 	-2.51595 	-1.42805 	-1.67480 	-1.60930 	-1.36270 	-0.23930 	-0.52465 	-0.59400 	-0.45780 	0.47855 	-0.20280 	0.45940 	0.15920 	1.08745 	0.84195 	1.05415 	0.75110 	1.18865 	1.28755 	1.24270 	1.38605 	0.68290 	0.59310 	0.69585 	0.07085 	-0.61340 
-3.21765 	-2.57005 	-1.54550 	-1.78170 	-1.68945 	-1.39730 	-0.39905 	-0.66540 	-0.72975 	-0.49460 	0.30080 	-0.33635 	0.34420 	0.07650 	0.92210 	0.70605 	0.95170 	0.65855 	1.05515 	1.16730 	1.13670 	1.31445 	0.59185 	0.49890 	0.62535 	0.02235 	-0.59550 
-3.21165 	-2.62255 	-1.65905 	-1.88460 	-1.76525 	-1.43155 	-0.55360 	-0.80175 	-0.86275 	-0.52785 	0.12895 	-0.46600 	0.22785 	-0.00180 	0.76225 	0.57515 	0.85155 	0.57760 	0.92750 	1.05240 	1.03285 	1.24415 	0.50460 	0.40825 	0.55630 	-0.02530 	-0.57980 
-3.20470 	-2.67150 	-1.76815 	-1.98285 	-1.83610 	-1.46505 	-0.70270 	-0.93395 	-0.99110 	-0.55780 	-0.03685 	-0.59235 	0.11120 	-0.07430 	0.60835 	0.44925 	0.75380 	0.50930 	0.80610 	0.94300 	0.93160 	1.17555 	0.42150 	0.32205 	0.48905 	-0.07160 	-0.56605 
-3.19640 	-2.71470 	-1.87215 	-2.07590 	-1.90150 	-1.49690 	-0.84600 	-1.06180 	-1.11255 	-0.58450 	-0.19610 	-0.71610 	-0.00460 	-0.13995 	0.46095 	0.32835 	0.65885 	0.45410 	0.69165 	0.83960 	0.83380 	1.10905 	0.34320 	0.24125 	0.42430 	-0.11585 	-0.55365 
-3.18645 	-2.75035 	-1.97020 	-2.16310 	-1.96085 	-1.52620 	-0.98280 	-1.18520 	-1.22490 	-0.60830 	-0.34840 	-0.83755 	-0.11870 	-0.19765 	0.32095 	0.21275 	0.56725 	0.41190 	0.58505 	0.74295 	0.74055 	1.04535 	0.27045 	0.16715 	0.36285 	-0.15690 	-0.54165 
-3.17450 	-2.77685 	-2.06165 	-2.24375 	-2.01365 	-1.55215 	-1.11270 	-1.30375 	-1.32645 	-0.62980 	-0.49320 	-0.95690 	-0.23025 	-0.24665 	0.18910 	0.10290 	0.47965 	0.38220 	0.48695 	0.65365 	0.65290 	0.98500 	0.20430 	0.10095 	0.30565 	-0.19370 	-0.52910 
-3.16010 	-2.79345 	-2.14580 	-2.31745 	-2.05930 	-1.57450 	-1.23545 	-1.41700 	-1.41580 	-0.65020 	-0.63000 	-1.07385 	-0.33850 	-0.28650 	0.06620 	-0.00065 	0.39650 	0.36355 	0.39820 	0.57240 	0.57170 	0.92850 	0.14570 	0.04365 	0.25360 	-0.22520 	-0.51500 
-3.14315 	-2.79985 	-2.22235 	-2.38370 	-2.09715 	-1.59340 	-1.35070 	-1.52415 	-1.49230 	-0.67110 	-0.75845 	-1.18790 	-0.44275 	-0.31705 	-0.04720 	-0.09745 	0.31825 	0.35435 	0.31905 	0.49960 	0.49770 	0.87625 	0.09525 	-0.00395 	0.20755 	-0.25045 	-0.49870 
-3.12345 	-2.79650 	-2.29100 	-2.44220 	-2.12665 	-1.60920 	-1.45835 	-1.62455 	-1.55570 	-0.69385 	-0.87825 	-1.29820 	-0.54200 	-0.33825 	-0.15075 	-0.18710 	0.24490 	0.35260 	0.24980 	0.43545 	0.43120 	0.82850 	0.05355 	-0.04145 	0.16815 	-0.26880 	-0.47980 
-3.10105 	-2.78465 	-2.35205 	-2.49310 	-2.14780 	-1.62230 	-1.55845 	-1.71745 	-1.60620 	-0.71990 	-0.98950 	-1.40380 	-0.63545 	-0.35070 	-0.24440 	-0.26940 	0.17655 	0.35625 	0.19035 	0.37990 	0.37240 	0.78515 	0.02090 	-0.06895 	0.13590 	-0.28010 	-0.45845 
-3.07625 	-2.76585 	-2.40595 	-2.53655 	-2.16095 	-1.63305 	-1.65140 	-1.80250 	-1.64455 	-0.74975 	-1.09245 	-1.50390 	-0.72230 	-0.35485 	-0.32835 	-0.34440 	0.11275 	0.36360 	0.14025 	0.33265 	0.32110 	0.74615 	-0.00280 	-0.08670 	0.11105 	-0.28455 	-0.43495 
-3.04930 	-2.74215 	-2.45335 	-2.57315 	-2.16720 	-1.64150 	-1.73755 	-1.87950 	-1.67155 	-0.78325 	-1.18745 	-1.59765 	-0.80190 	-0.35155 	-0.40300 	-0.41200 	0.05330 	0.37330 	0.09910 	0.29320 	0.27715 	0.71150 	-0.01750 	-0.09535 	0.09370 	-0.28255 	-0.40985 
-3.02065 	-2.71570 	-2.49500 	-2.60340 	-2.16760 	-1.64730 	-1.81750 	-1.94850 	-1.68835 	-0.81930 	-1.27485 	-1.68430 	-0.87370 	-0.34175 	-0.46875 	-0.47220 	-0.00185 	0.38470 	0.06640 	0.26120 	0.24055 	0.68135 	-0.02340 	-0.09535 	0.08390 	-0.27460 	-0.38360 
-2.99045 	-2.68845 	-2.53130 	-2.62800 	-2.16345 	-1.64950 	-1.89130 	-2.00965 	-1.69620 	-0.85600 	-1.35485 	-1.76300 	-0.93710 	-0.32625 	-0.52585 	-0.52475 	-0.05255 	0.39760 	0.04190 	0.23655 	0.21115 	0.65610 	-0.02035 	-0.08730 	0.08160 	-0.26110 	-0.35620 
-2.95880 	-2.66210 	-2.56280 	-2.64745 	-2.15570 	-1.64685 	-1.95930 	-2.06315 	-1.69625 	-0.89080 	-1.42750 	-1.83305 	-0.99180 	-0.30615 	-0.57445 	-0.56930 	-0.09875 	0.41190 	0.02560 	0.21905 	0.18925 	0.63630 	-0.00840 	-0.07140 	0.08685 	-0.24200 	-0.32740 
-2.92600 	-2.63805 	-2.58990 	-2.66250 	-2.14550 	-1.63795 	-2.02155 	-2.10945 	-1.69005 	-0.92115 	-1.49295 	-1.89400 	-1.03735 	-0.28315 	-0.61465 	-0.60560 	-0.14015 	0.42715 	0.01735 	0.20880 	0.17460 	0.62205 	0.01245 	-0.04815 	0.09955 	-0.21760 	-0.29705 
-2.89250 	-2.61750 	-2.61315 	-2.67375 	-2.13385 	-1.62175 	-2.07830 	-2.14905 	-1.67905 	-0.94515 	-1.55135 	-1.94555 	-1.07350 	-0.25950 	-0.64695 	-0.63355 	-0.17670 	0.44195 	0.01690 	0.20545 	0.16695 	0.61315 	0.04170 	-0.01825 	0.11895 	-0.18815 	-0.26495 
-2.85885 	-2.60135 	-2.63355 	-2.68215 	-2.12160 	-1.59760 	-2.13010 	-2.18240 	-1.66515 	-0.96185 	-1.60325 	-1.98795 	-1.10050 	-0.23815 	-0.67180 	-0.65335 	-0.20865 	0.45390 	0.02355 	0.20830 	0.16540 	0.60870 	0.07830 	0.01735 	0.14410 	-0.15410 	-0.23105 
-2.82615 	-2.59045 	-2.65210 	-2.68870 	-2.10990 	-1.56575 	-2.17765 	-2.21015 	-1.65020 	-0.97150 	-1.64935 	-2.02180 	-1.11870 	-0.22265 	-0.69015 	-0.66560 	-0.23620 	0.45965 	0.03645 	0.21645 	0.16880 	0.60745 	0.12085 	0.05730 	0.17365 	-0.11630 	-0.19575 
-2.79535 	-2.58515 	-2.67010 	-2.69445 	-2.09975 	-1.52755 	-2.22190 	-2.23300 	-1.63625 	-0.97540 	-1.69055 	-2.04785 	-1.12870 	-0.21660 	-0.70285 	-0.67125 	-0.26015 	0.45565 	0.05440 	0.22865 	0.17570 	0.60760 	0.16740 	0.10005 	0.20590 	-0.07590 	-0.15990 
-2.76770 	-2.58555 	-2.68900 	-2.70050 	-2.09235 	-1.48490 	-2.26375 	-2.25170 	-1.62505 	-0.97530 	-1.72775 	-2.06730 	-1.13155 	-0.22315 	-0.71115 	-0.67140 	-0.28090 	0.43830 	0.07595 	0.24345 	0.18455 	0.60750 	0.21590 	0.14395 	0.23905 	-0.03415 	-0.12430 
-2.74420 	-2.59160 	-2.70995 	-2.70795 	-2.08840 	-1.44015 	-2.30430 	-2.26720 	-1.61810 	-0.97350 	-1.76185 	-2.08130 	-1.12845 	-0.24485 	-0.71580 	-0.66710 	-0.29925 	0.40515 	0.09985 	0.25955 	0.19400 	0.60550 	0.26440 	0.18750 	0.27150 	0.00780 	-0.08995 
-2.72560 	-2.60250 	-2.73390 	-2.71755 	-2.08850 	-1.39600 	-2.34405 	-2.28005 	-1.61615 	-0.97220 	-1.79350 	-2.09070 	-1.12065 	-0.28285 	-0.71760 	-0.65930 	-0.31570 	0.35515 	0.12515 	0.27595 	0.20295 	0.60015 	0.31120 	0.22940 	0.30200 	0.04890 	-0.05775 
-2.71255 	-2.61750 	-2.76160 	-2.72970 	-2.09275 	-1.35495 	-2.38355 	-2.29090 	-1.61925 	-0.97340 	-1.82295 	-2.09620 	-1.10910 	-0.33680 	-0.71685 	-0.64870 	-0.33055 	0.28910 	0.15120 	0.29220 	0.21100 	0.59090 	0.35510 	0.26900 	0.32975 	0.08835 	-0.02785 
-2.70530 	-2.63535 	-2.79295 	-2.74450 	-2.10060 	-1.31900 	-2.42280 	-2.30000 	-1.62685 	-0.97830 	-1.85005 	-2.09825 	-1.09450 	-0.40470 	-0.71345 	-0.63565 	-0.34390 	0.20965 	0.17775 	0.30800 	0.21800 	0.57750 	0.39560 	0.30595 	0.35470 	0.12595 	-0.00045 
-2.70390 	-2.65485 	-2.82785 	-2.76160 	-2.11120 	-1.28975 	-2.46155 	-2.30740 	-1.63800 	-0.98735 	-1.87475 	-2.09710 	-1.07740 	-0.48325 	-0.70715 	-0.62035 	-0.35575 	0.12075 	0.20495 	0.32360 	0.22430 	0.56045 	0.43260 	0.34050 	0.37700 	0.16160 	0.02480 
-2.70825 	-2.67520 	-2.86580 	-2.78055 	-2.12350 	-1.26810 	-2.49960 	-2.31320 	-1.65170 	-1.00050 	-1.89665 	-2.09285 	-1.05825 	-0.56820 	-0.69765 	-0.60275 	-0.36580 	0.02720 	0.23305 	0.33955 	0.23055 	0.54050 	0.46640 	0.37295 	0.39705 	0.19545 	0.04805 
-2.71840 	-2.69555 	-2.90620 	-2.80090 	-2.13640 	-1.25440 	-2.53670 	-2.31740 	-1.66675 	-1.01700 	-1.91545 	-2.08570 	-1.03755 	-0.65490 	-0.68455 	-0.58285 	-0.37380 	-0.06630 	0.26220 	0.35605 	0.23740 	0.51865 	0.49745 	0.40380 	0.41535 	0.22760 	0.06930 
-2.73405 	-2.71570 	-2.94835 	-2.82205 	-2.14900 	-1.24850 	-2.57250 	-2.32010 	-1.68205 	-1.03580 	-1.93075 	-2.07565 	-1.01585 	-0.73920 	-0.66770 	-0.56045 	-0.37915 	-0.15530 	0.29285 	0.37380 	0.24565 	0.49580 	0.52665 	0.43345 	0.43210 	0.25830 	0.08840 
-2.75470 	-2.73555 	-2.99145 	-2.84345 	-2.16050 	-1.24985 	-2.60665 	-2.32105 	-1.69650 	-1.05565 	-1.94230 	-2.06250 	-0.99365 	-0.81745 	-0.64670 	-0.53550 	-0.38150 	-0.23645 	0.32510 	0.39315 	0.25595 	0.47285 	0.55470 	0.46245 	0.44770 	0.28760 	0.10495 
-2.77985 	-2.75535 	-3.03470 	-2.86465 	-2.17045 	-1.25755 	-2.63895 	-2.32015 	-1.70910 	-1.07535 	-1.94980 	-2.04600 	-0.97135 	-0.88720 	-0.62165 	-0.50765 	-0.38025 	-0.30725 	0.35915 	0.41460 	0.26885 	0.45065 	0.58255 	0.49095 	0.46220 	0.31560 	0.11855 
-2.80865 	-2.77565 	-3.07740 	-2.88510 	-2.17860 	-1.27090 	-2.66900 	-2.31725 	-1.71885 	-1.09380 	-1.95310 	-2.02565 	-0.94915 	-0.94710 	-0.59260 	-0.47700 	-0.37525 	-0.36645 	0.39495 	0.43825 	0.28450 	0.43000 	0.61095 	0.51925 	0.47560 	0.34250 	0.12875 
-2.84035 	-2.79705 	-3.11885 	-2.90425 	-2.18490 	-1.28890 	-2.69665 	-2.31205 	-1.72505 	-1.11035 	-1.95210 	-2.00125 	-0.92715 	-0.99680 	-0.55965 	-0.44335 	-0.36645 	-0.41390 	0.43250 	0.46445 	0.30290 	0.41145 	0.64065 	0.54740 	0.48795 	0.36815 	0.13535 
-2.87375 	-2.82020 	-3.15845 	-2.92160 	-2.18935 	-1.31065 	-2.72155 	-2.30435 	-1.72705 	-1.12440 	-1.94700 	-1.97270 	-0.90530 	-1.03695 	-0.52315 	-0.40680 	-0.35375 	-0.45030 	0.47170 	0.49320 	0.32390 	0.39565 	0.67215 	0.57560 	0.49925 	0.39265 	0.13810 
-2.90780 	-2.84540 	-3.19570 	-2.93675 	-2.19190 	-1.33490 	-2.74345 	-2.29395 	-1.72395 	-1.13590 	-1.93775 	-1.94000 	-0.88320 	-1.06845 	-0.48340 	-0.36740 	-0.33715 	-0.47720 	0.51250 	0.52470 	0.34735 	0.38315 	0.70595 	0.60405 	0.50975 	0.41620 	0.13745 
-2.94135 	-2.87300 	-3.23010 	-2.94915 	-2.19265 	-1.36045 	-2.76200 	-2.28055 	-1.71495 	-1.14455 	-1.92465 	-1.90350 	-0.86025 	-1.09230 	-0.44040 	-0.32505 	-0.31645 	-0.49605 	0.55510 	0.55905 	0.37325 	0.37440 	0.74255 	0.63305 	0.51975 	0.43900 	0.13385 
-2.97355 	-2.90300 	-3.26125 	-2.95855 	-2.19165 	-1.38615 	-2.77710 	-2.26425 	-1.69905 	-1.15010 	-1.90780 	-1.86380 	-0.83555 	-1.10920 	-0.39440 	-0.27980 	-0.29130 	-0.50850 	0.59965 	0.59660 	0.40185 	0.36995 	0.78230 	0.66305 	0.52995 	0.46150 	0.12820 
-3.00375 	-2.93495 	-3.28900 	-2.96480 	-2.18910 	-1.41080 	-2.78860 	-2.24515 	-1.67590 	-1.15225 	-1.88760 	-1.82170 	-0.80810 	-1.11960 	-0.34560 	-0.23165 	-0.26135 	-0.51580 	0.64630 	0.63755 	0.43325 	0.37000 	0.82530 	0.69445 	0.54085 	0.48415 	0.12140 
-3.03165 	-2.96835 	-3.31325 	-2.96805 	-2.18530 	-1.43350 	-2.79650 	-2.22365 	-1.64560 	-1.15085 	-1.86425 	-1.77810 	-0.77715 	-1.12375 	-0.29405 	-0.18080 	-0.22650 	-0.51900 	0.69515 	0.68205 	0.46770 	0.37445 	0.87150 	0.72755 	0.55315 	0.50730 	0.11435 
-3.05705 	-3.00245 	-3.33385 	-2.96870 	-2.18055 	-1.45355 	-2.80080 	-2.20030 	-1.60905 	-1.14560 	-1.83805 	-1.73400 	-0.74200 	-1.12175 	-0.24005 	-0.12735 	-0.18700 	-0.51855 	0.74615 	0.73015 	0.50535 	0.38310 	0.92060 	0.76260 	0.56745 	0.53105 	0.10780 
-3.08005 	-3.03595 	-3.35065 	-2.96680 	-2.17510 	-1.47025 	-2.80145 	-2.17540 	-1.56760 	-1.13660 	-1.80925 	-1.68990 	-0.70235 	-1.11370 	-0.18360 	-0.07155 	-0.14330 	-0.51480 	0.79920 	0.78180 	0.54615 	0.39540 	0.97220 	0.79980 	0.58425 	0.55555 	0.10220 
-3.10060 	-3.06745 	-3.36350 	-2.96250 	-2.16905 	-1.48315 	-2.79825 	-2.14895 	-1.52280 	-1.12370 	-1.77760 	-1.64590 	-0.65795 	-1.09960 	-0.12480 	-0.01340 	-0.09575 	-0.50750 	0.85435 	0.83680 	0.59005 	0.41120 	1.02580 	0.83925 	0.60420 	0.58070 	0.09775 
-3.11850 	-3.09530 	-3.37180 	-2.95540 	-2.16215 	-1.49190 	-2.79050 	-2.12065 	-1.47595 	-1.10700 	-1.74275 	-1.60165 	-0.60875 	-1.07965 	-0.06335 	0.04705 	-0.04480 	-0.49620 	0.91165 	0.89530 	0.63720 	0.43045 	1.08095 	0.88125 	0.62785 	0.60660 	0.09465 
-3.13320 	-3.11740 	-3.37475 	-2.94495 	-2.15400 	-1.49640 	-2.77750 	-2.08975 	-1.42825 	-1.08610 	-1.70390 	-1.55620 	-0.55465 	-1.05375 	0.00110 	0.11010 	0.00955 	-0.48005 	0.97145 	0.95750 	0.68785 	0.45345 	1.13765 	0.92640 	0.65580 	0.63335 	0.09320 
-3.14390 	-3.13190 	-3.37155 	-2.93035 	-2.14350 	-1.49640 	-2.75835 	-2.05530 	-1.38040 	-1.06080 	-1.66030 	-1.50845 	-0.49600 	-1.02175 	0.06925 	0.17640 	0.06740 	-0.45815 	1.03420 	1.02370 	0.74250 	0.48110 	1.19600 	0.97530 	0.68895 	0.66145 	0.09405 
-3.14950 	-3.13695 	-3.36120 	-2.91040 	-2.12955 	-1.49210 	-2.73200 	-2.01645 	-1.33270 	-1.03070 	-1.61115 	-1.45720 	-0.43325 	-0.98335 	0.14160 	0.24635 	0.12905 	-0.42940 	1.10035 	1.09440 	0.80165 	0.51450 	1.25660 	1.02875 	0.72795 	0.69165 	0.09810 
-3.14910 	-3.13125 	-3.34300 	-2.88405 	-2.11060 	-1.48340 	-2.69795 	-1.97260 	-1.28535 	-0.99565 	-1.55585 	-1.40145 	-0.36725 	-0.93825 	0.21865 	0.32035 	0.19485 	-0.39250 	1.17040 	1.17005 	0.86580 	0.55485 	1.31985 	1.08745 	0.77320 	0.72460 	0.10635 
-3.14170 	-3.11410 	-3.31640 	-2.85060 	-2.08530 	-1.47075 	-2.65565 	-1.92320 	-1.23825 	-0.95605 	-1.49420 	-1.34065 	-0.29890 	-0.88600 	0.30055 	0.39860 	0.26475 	-0.34615 	1.24455 	1.25075 	0.93500 	0.60320 	1.38625 	1.15180 	0.82495 	0.76085 	0.11930 
-3.12700 	-3.08585 	-3.28165 	-2.80950 	-2.05260 	-1.45465 	-2.60540 	-1.86835 	-1.19115 	-0.91305 	-1.42645 	-1.27455 	-0.22930 	-0.82655 	0.38680 	0.48065 	0.33860 	-0.28910 	1.32235 	1.33620 	1.00905 	0.66005 	1.45585 	1.22175 	0.88275 	0.80040 	0.13690 
-3.10500 	-3.04780 	-3.23930 	-2.76080 	-2.01235 	-1.43605 	-2.54805 	-1.80825 	-1.14400 	-0.86860 	-1.35350 	-1.20360 	-0.15945 	-0.75970 	0.47665 	0.56570 	0.41560 	-0.22055 	1.40310 	1.42560 	1.08700 	0.72530 	1.52825 	1.29630 	0.94555 	0.84295 	0.15850 
-3.07660 	-3.00190 	-3.19055 	-2.70530 	-1.96485 	-1.41595 	-2.48480 	-1.74375 	-1.09670 	-0.82525 	-1.27640 	-1.12860 	-0.09065 	-0.68565 	0.56855 	0.65260 	0.49480 	-0.14040 	1.48535 	1.51770 	1.16760 	0.79835 	1.60270 	1.37435 	1.01210 	0.88740 	0.18255 
-3.04295 	-2.95090 	-3.13710 	-2.64410 	-1.91085 	-1.39520 	-2.41740 	-1.67575 	-1.04905 	-0.78520 	-1.19670 	-1.05055 	-0.02375 	-0.60475 	0.66095 	0.73975 	0.57515 	-0.04910 	1.56770 	1.61105 	1.24930 	0.87800 	1.67815 	1.45435 	1.08105 	0.93270 	0.20740 
-3.00540 	-2.89760 	-3.08060 	-2.57845 	-1.85135 	-1.37440 	-2.34740 	-1.60535 	-1.00095 	-0.75040 	-1.11585 	-0.97090 	0.04020 	-0.51765 	0.75220 	0.82570 	0.65560 	0.05250 	1.64855 	1.70415 	1.33090 	0.96270 	1.75370 	1.53470 	1.15085 	0.97760 	0.23160 
-2.96540 	-2.84455 	-3.02265 	-2.50970 	-1.78730 	-1.35365 	-2.27645 	-1.53345 	-0.95220 	-0.72135 	-1.03530 	-0.89075 	0.10050 	-0.42540 	0.84095 	0.90920 	0.73545 	0.16285 	1.72680 	1.79570 	1.41130 	1.05090 	1.82845 	1.61430 	1.22025 	1.02115 	0.25395 
-2.92405 	-2.79420 	-2.96480 	-2.43915 	-1.71965 	-1.33245 	-2.20595 	-1.46100 	-0.90285 	-0.69765 	-0.95615 	-0.81145 	0.15635 	-0.32950 	0.92615 	0.98920 	0.81400 	0.28050 	1.80130 	1.88485 	1.48975 	1.14115 	1.90190 	1.69200 	1.28835 	1.06290 	0.27380 
-2.88245 	-2.74825 	-2.90830 	-2.36830 	-1.64955 	-1.30995 	-2.13700 	-1.38895 	-0.85320 	-0.67790 	-0.87950 	-0.73420 	0.20725 	-0.23205 	1.00685 	1.06490 	0.89055 	0.40330 	1.87170 	1.97080 	1.56580 	1.23195 	1.97350 	1.76710 	1.35425 	1.10260 	0.29090 
-2.84120 	-2.70800 	-2.85425 	-2.29840 	-1.57815 	-1.28510 	-2.07075 	-1.31840 	-0.80425 	-0.66005 	-0.80635 	-0.66045 	0.25275 	-0.13525 	1.08245 	1.13570 	0.96430 	0.52905 	1.93730 	2.05290 	1.63905 	1.32190 	2.04285 	1.83880 	1.41720 	1.13985 	0.30535 
-2.80090 	-2.67425 	-2.80360 	-2.23115 	-1.50690 	-1.25660 	-2.00815 	-1.25060 	-0.75710 	-0.64225 	-0.73755 	-0.59145 	0.29285 	-0.04155 	1.15230 	1.20085 	1.03405 	0.65535 	1.99785 	2.13045 	1.70900 	1.40970 	2.10940 	1.90640 	1.47630 	1.17470 	0.31710 
-2.76195 	-2.64710 	-2.75715 	-2.16790 	-1.43750 	-1.22350 	-1.94995 	-1.18680 	-0.71320 	-0.62245 	-0.67400 	-0.52865 	0.32785 	0.04730 	1.21580 	1.25985 	1.09890 	0.77950 	2.05290 	2.20285 	1.77500 	1.49415 	2.17230 	1.96920 	1.53065 	1.20685 	0.32630 
-2.72470 	-2.62620 	-2.71560 	-2.11020 	-1.37180 	-1.18515 	-1.89700 	-1.12840 	-0.67395 	-0.59905 	-0.61660 	-0.47330 	0.35825 	0.12990 	1.27250 	1.31205 	1.15775 	0.89870 	2.10205 	2.26940 	1.83640 	1.57390 	2.23070 	2.02665 	1.57940 	1.23625 	0.33310 
-2.68955 	-2.61085 	-2.67930 	-2.05935 	-1.31170 	-1.14115 	-1.84990 	-1.07685 	-0.64060 	-0.57080 	-0.56600 	-0.42675 	0.38470 	0.20565 	1.32190 	1.35695 	1.20995 	1.01020 	2.14495 	2.32930 	1.89250 	1.64780 	2.28375 	2.07800 	1.62180 	1.26270 	0.33760 
-2.65700 	-2.59980 	-2.64850 	-2.01660 	-1.25900 	-1.09170 	-1.80900 	-1.03350 	-0.61425 	-0.53680 	-0.52275 	-0.39000 	0.40755 	0.27455 	1.36350 	1.39405 	1.25500 	1.11130 	2.18110 	2.38200 	1.94265 	1.71470 	2.33055 	2.12275 	1.65740 	1.28615 	0.34010 
-2.62735 	-2.59175 	-2.62305 	-1.98265 	-1.21510 	-1.03720 	-1.77460 	-0.99940 	-0.59550 	-0.49675 	-0.48720 	-0.36395 	0.42705 	0.33730 	1.39715 	1.42280 	1.29285 	1.20000 	2.21025 	2.42690 	1.98625 	1.77355 	2.37025 	2.16055 	1.68575 	1.30650 	0.34065 
-2.60075 	-2.58505 	-2.60250 	-1.95770 	-1.18070 	-0.97825 	-1.74645 	-0.97525 	-0.58475 	-0.45070 	-0.45935 	-0.34910 	0.44320 	0.39465 	1.42270 	1.44295 	1.32350 	1.27445 	2.23230 	2.46360 	2.02300 	1.82330 	2.40225 	2.19105 	1.70680 	1.32355 	0.33940 
-2.57710 	-2.57780 	-2.58590 	-1.94140 	-1.15580 	-0.91540 	-1.72405 	-0.96120 	-0.58165 	-0.39895 	-0.43885 	-0.34555 	0.45575 	0.44750 	1.44030 	1.45460 	1.34715 	1.33355 	2.24720 	2.49190 	2.05245 	1.86315 	2.42620 	2.21425 	1.72075 	1.33725 	0.33655 
-2.55585 	-2.56825 	-2.57210 	-1.93275 	-1.13950 	-0.84920 	-1.70640 	-0.95660 	-0.58505 	-0.34235 	-0.42495 	-0.35280 	0.46445 	0.49630 	1.45040 	1.45780 	1.36440 	1.37680 	2.25515 	2.51175 	2.07470 	1.89260 	2.44220 	2.23040 	1.72795 	1.34745 	0.33210 
-2.53645 	-2.55490 	-2.55955 	-1.93015 	-1.13030 	-0.78060 	-1.69235 	-0.96025 	-0.59350 	-0.28200 	-0.41675 	-0.36965 	0.46930 	0.54090 	1.45355 	1.45315 	1.37550 	1.40390 	2.25645 	2.52325 	2.08975 	1.91125 	2.45030 	2.23975 	1.72885 	1.35400 	0.32625 
-2.51820 	-2.53660 	-2.54710 	-1.93170 	-1.12610 	-0.71065 	-1.68050 	-0.97030 	-0.60510 	-0.21940 	-0.41300 	-0.39455 	0.47030 	0.58000 	1.45025 	1.44105 	1.38085 	1.41505 	2.25120 	2.52655 	2.09780 	1.91890 	2.45075 	2.24255 	1.72390 	1.35660 	0.31915 
-2.50045 	-2.51295 	-2.53325 	-1.93550 	-1.12485 	-0.64080 	-1.66945 	-0.98460 	-0.61785 	-0.15635 	-0.41255 	-0.42540 	0.46800 	0.61195 	1.44100 	1.42220 	1.38065 	1.41045 	2.23960 	2.52185 	2.09895 	1.91575 	2.44395 	2.23910 	1.71335 	1.35515 	0.31060 
-2.48265 	-2.48400 	-2.51705 	-1.93935 	-1.12440 	-0.57235 	-1.65810 	-1.00065 	-0.62990 	-0.09460 	-0.41435 	-0.45980 	0.46305 	0.63435 	1.42615 	1.39725 	1.37495 	1.39050 	2.22155 	2.50910 	2.09320 	1.90210 	2.43010 	2.22950 	1.69725 	1.34920 	0.30055 
-2.46455 	-2.45060 	-2.49805 	-1.94200 	-1.12355 	-0.50660 	-1.64550 	-1.01640 	-0.64020 	-0.03590 	-0.41745 	-0.49530 	0.45625 	0.64525 	1.40595 	1.36665 	1.36360 	1.35555 	2.19690 	2.48825 	2.08055 	1.87835 	2.40935 	2.21355 	1.67550 	1.33830 	0.28860 
-2.44600 	-2.41425 	-2.47595 	-1.94230 	-1.12140 	-0.44485 	-1.63125 	-1.03035 	-0.64810 	0.01790 	-0.42155 	-0.52995 	0.44830 	0.64260 	1.38030 	1.33080 	1.34655 	1.30600 	2.16535 	2.45890 	2.06075 	1.84480 	2.38155 	2.19095 	1.64775 	1.32200 	0.27440 
-2.42710 	-2.37680 	-2.45130 	-1.94005 	-1.11795 	-0.38840 	-1.61550 	-1.04175 	-0.65360 	0.06490 	-0.42650 	-0.56245 	0.43970 	0.62530 	1.34900 	1.28995 	1.32375 	1.24245 	2.12650 	2.42075 	2.03360 	1.80185 	2.34665 	2.16115 	1.61340 	1.29965 	0.25730 
-2.40820 	-2.34045 	-2.42470 	-1.93520 	-1.11365 	-0.33845 	-1.59870 	-1.05040 	-0.65715 	0.10300 	-0.43250 	-0.59190 	0.43060 	0.59295 	1.31150 	1.24415 	1.29515 	1.16565 	2.07980 	2.37330 	1.99865 	1.74965 	2.30425 	2.12345 	1.57180 	1.27050 	0.23670 
-2.38965 	-2.30710 	-2.39705 	-1.92830 	-1.10920 	-0.29620 	-1.58140 	-1.05650 	-0.65955 	0.13005 	-0.43980 	-0.61795 	0.42075 	0.54590 	1.26750 	1.19350 	1.26075 	1.07665 	2.02485 	2.31620 	1.95580 	1.68855 	2.25390 	2.07725 	1.52210 	1.23415 	0.21185 
-2.37175 	-2.27850 	-2.36915 	-1.91975 	-1.10560 	-0.26255 	-1.56435 	-1.06060 	-0.66205 	0.14415 	-0.44885 	-0.64065 	0.40950 	0.48560 	1.21675 	1.13795 	1.22045 	0.97670 	1.96135 	2.24920 	1.90455 	1.61900 	2.19535 	2.02190 	1.46390 	1.19025 	0.18225 
-2.35475 	-2.25590 	-2.34190 	-1.91045 	-1.10395 	-0.23835 	-1.54825 	-1.06325 	-0.66590 	0.14390 	-0.46010 	-0.66050 	0.39555 	0.41380 	1.15890 	1.07750 	1.17405 	0.86720 	1.88910 	2.17235 	1.84465 	1.54160 	2.12815 	1.95685 	1.39650 	1.13860 	0.14765 
-2.33905 	-2.23990 	-2.31595 	-1.90115 	-1.10540 	-0.22415 	-1.53380 	-1.06540 	-0.67235 	0.12870 	-0.47395 	-0.67830 	0.37765 	0.33310 	1.09375 	1.01210 	1.12100 	0.75005 	1.80805 	2.08565 	1.77585 	1.45725 	2.05200 	1.88195 	1.31970 	1.07930 	0.10810 
-2.32470 	-2.23060 	-2.29180 	-1.89255 	-1.11080 	-0.22035 	-1.52160 	-1.06775 	-0.68240 	0.09895 	-0.49090 	-0.69510 	0.35415 	0.24595 	1.02125 	0.94140 	1.06070 	0.62735 	1.71815 	1.98935 	1.69785 	1.36695 	1.96670 	1.79700 	1.23365 	1.01275 	0.06385 
-2.31190 	-2.22740 	-2.26980 	-1.88520 	-1.12055 	-0.22685 	-1.51200 	-1.07090 	-0.69655 	0.05585 	-0.51125 	-0.71205 	0.32395 	0.15540 	0.94140 	0.86515 	0.99255 	0.50160 	1.61965 	1.88385 	1.61070 	1.27195 	1.87220 	1.70225 	1.13880 	0.93950 	0.01570 
-2.30040 	-2.22905 	-2.24980 	-1.87925 	-1.13450 	-0.24310 	-1.50510 	-1.07530 	-0.71445 	0.00160 	-0.53520 	-0.73020 	0.28620 	0.06445 	0.85455 	0.78320 	0.91615 	0.37565 	1.51310 	1.76995 	1.51455 	1.17355 	1.76880 	1.59840 	1.03615 	0.86055 	-0.03540 
-2.28980 	-2.23350 	-2.23160 	-1.87450 	-1.15190 	-0.26780 	-1.50055 	-1.08110 	-0.73525 	-0.06085 	-0.56250 	-0.75010 	0.24080 	-0.02410 	0.76145 	0.69580 	0.83160 	0.25250 	1.39925 	1.64870 	1.41020 	1.07345 	1.65690 	1.48630 	0.92730 	0.77715 	-0.08815 
-2.27945 	-2.23865 	-2.21440 	-1.87050 	-1.17160 	-0.29945 	-1.49790 	-1.08805 	-0.75790 	-0.12830 	-0.59295 	-0.77250 	0.18800 	-0.10740 	0.66305 	0.60335 	0.73945 	0.13530 	1.27940 	1.52150 	1.29860 	0.97320 	1.53770 	1.36745 	0.81420 	0.69075 	-0.14100 
-2.26855 	-2.24220 	-2.19765 	-1.86680 	-1.19270 	-0.33635 	-1.49650 	-1.09615 	-0.78110 	-0.19720 	-0.62595 	-0.79760 	0.12840 	-0.18350 	0.56060 	0.50665 	0.64075 	0.02660 	1.15490 	1.39000 	1.18115 	0.87440 	1.41225 	1.24340 	0.69880 	0.60275 	-0.19255 
-2.25665 	-2.24230 	-2.18100 	-1.86305 	-1.21390 	-0.37705 	-1.49595 	-1.10525 	-0.80400 	-0.26435 	-0.66125 	-0.82570 	0.06295 	-0.25135 	0.45535 	0.40645 	0.53695 	-0.07120 	1.02720 	1.25565 	1.05940 	0.77820 	1.28180 	1.11570 	0.58330 	0.51445 	-0.24150 
-2.24335 	-2.23765 	-2.16420 	-1.85905 	-1.23465 	-0.42060 	-1.49610 	-1.11555 	-0.82580 	-0.32705 	-0.69855 	-0.85730 	-0.00750 	-0.31090 	0.34825 	0.30365 	0.42975 	-0.15695 	0.89745 	1.12010 	0.93475 	0.68560 	1.14780 	0.98600 	0.46935 	0.42705 	-0.28685 
-2.22870 	-2.22770 	-2.14745 	-1.85505 	-1.25430 	-0.46655 	-1.49710 	-1.12735 	-0.84635 	-0.38370 	-0.73790 	-0.89265 	-0.08180 	-0.36295 	0.24035 	0.19905 	0.32070 	-0.22990 	0.76690 	0.98450 	0.80875 	0.59705 	1.01140 	0.85560 	0.35845 	0.34135 	-0.32805 
-2.21280 	-2.21255 	-2.13125 	-1.85120 	-1.27265 	-0.51480 	-1.49935 	-1.14105 	-0.86580 	-0.43365 	-0.77930 	-0.93195 	-0.15865 	-0.40880 	0.13215 	0.09350 	0.21190 	-0.28985 	0.63645 	0.85010 	0.68300 	0.51305 	0.87405 	0.72590 	0.25180 	0.25800 	-0.36480 
-2.19620 	-2.19300 	-2.11615 	-1.84800 	-1.28960 	-0.56530 	-1.50335 	-1.15705 	-0.88445 	-0.47710 	-0.82275 	-0.97515 	-0.23670 	-0.44990 	0.02440 	-0.01205 	0.10520 	-0.33720 	0.50710 	0.71795 	0.55890 	0.43380 	0.73700 	0.59805 	0.15025 	0.17745 	-0.39695 
-2.17930 	-2.17010 	-2.10265 	-1.84575 	-1.30525 	-0.61775 	-1.50960 	-1.17565 	-0.90265 	-0.51485 	-0.86845 	-1.02200 	-0.31475 	-0.48730 	-0.08230 	-0.11680 	0.00240 	-0.37245 	0.37975 	0.58895 	0.43805 	0.35970 	0.60160 	0.47330 	0.05445 	0.10005 	-0.42475 
-2.16260 	-2.14530 	-2.09130 	-1.84490 	-1.31955 	-0.67140 	-1.51845 	-1.19720 	-0.92085 	-0.54805 	-0.91620 	-1.07215 	-0.39170 	-0.52170 	-0.18755 	-0.21995 	-0.09510 	-0.39615 	0.25510 	0.46400 	0.32170 	0.29085 	0.46935 	0.35265 	-0.03515 	0.02625 	-0.44850 
-2.14650 	-2.12040 	-2.08255 	-1.84595 	-1.33285 	-0.72535 	-1.53030 	-1.22180 	-0.93945 	-0.57780 	-0.96610 	-1.12530 	-0.46700 	-0.55290 	-0.29100 	-0.32070 	-0.18625 	-0.40885 	0.13395 	0.34385 	0.21095 	0.22765 	0.34165 	0.23725 	-0.11805 	-0.04360 	-0.46850 
-2.13130 	-2.09685 	-2.07675 	-1.84905 	-1.34525 	-0.77830 	-1.54530 	-1.24965 	-0.95855 	-0.60545 	-1.01810 	-1.18110 	-0.54035 	-0.58040 	-0.39225 	-0.41845 	-0.27050 	-0.41130 	0.01710 	0.22905 	0.10675 	0.17035 	0.21985 	0.12795 	-0.19380 	-0.10890 	-0.48525 
-2.11725 	-2.07620 	-2.07410 	-1.85440 	-1.35690 	-0.82885 	-1.56350 	-1.28075 	-0.97795 	-0.63160 	-1.07195 	-1.23915 	-0.61170 	-0.60305 	-0.49110 	-0.51285 	-0.34770 	-0.40400 	-0.09505 	0.12030 	0.00960 	0.11905 	0.10535 	0.02580 	-0.26210 	-0.16905 	-0.49885 
-2.10410 	-2.05930 	-2.07425 	-1.86180 	-1.36755 	-0.87520 	-1.58460 	-1.31475 	-0.99725 	-0.65650 	-1.12730 	-1.29885 	-0.68100 	-0.61935 	-0.58705 	-0.60330 	-0.41785 	-0.38735 	-0.20155 	0.01815 	-0.07985 	0.07395 	-0.00045 	-0.06820 	-0.32235 	-0.22325 	-0.50945 
-2.09140 	-2.04650 	-2.07655 	-1.87075 	-1.37670 	-0.91580 	-1.60785 	-1.35100 	-1.01600 	-0.67965 	-1.18335 	-1.35940 	-0.74800 	-0.62795 	-0.67950 	-0.68920 	-0.48090 	-0.36165 	-0.30165 	-0.07670 	-0.16130 	0.03550 	-0.09650 	-0.15325 	-0.37400 	-0.27065 	-0.51690 
-2.07835 	-2.03750 	-2.08025 	-1.88055 	-1.38415 	-0.94895 	-1.63235 	-1.38855 	-1.03395 	-0.70025 	-1.23925 	-1.41975 	-0.81240 	-0.62780 	-0.76770 	-0.77000 	-0.53690 	-0.32715 	-0.39455 	-0.16350 	-0.23425 	0.00390 	-0.18170 	-0.22855 	-0.41670 	-0.31065 	-0.52085 
-2.06430 	-2.03170 	-2.08435 	-1.89045 	-1.38965 	-0.97360 	-1.65720 	-1.42640 	-1.05120 	-0.71755 	-1.29375 	-1.47850 	-0.87355 	-0.61840 	-0.85085 	-0.84495 	-0.58565 	-0.28425 	-0.47960 	-0.24185 	-0.29880 	-0.02085 	-0.25555 	-0.29365 	-0.45015 	-0.34280 	-0.52140 
-2.04880 	-2.02815 	-2.08805 	-1.90005 	-1.39375 	-0.98930 	-1.68135 	-1.46360 	-1.06865 	-0.73095 	-1.34615 	-1.53455 	-0.93095 	-0.60020 	-0.92810 	-0.91360 	-0.62735 	-0.23400 	-0.55635 	-0.31150 	-0.35520 	-0.03905 	-0.31800 	-0.34855 	-0.47460 	-0.36725 	-0.51885 
-2.03190 	-2.02620 	-2.09095 	-1.90910 	-1.39725 	-0.99655 	-1.70415 	-1.49950 	-1.08750 	-0.74030 	-1.39540 	-1.58670 	-0.98420 	-0.57415 	-0.99920 	-0.97570 	-0.66225 	-0.17780 	-0.62480 	-0.37265 	-0.40420 	-0.05145 	-0.36960 	-0.39390 	-0.49080 	-0.38455 	-0.51390 
-2.01390 	-2.02490 	-2.09280 	-1.91765 	-1.40130 	-0.99650 	-1.72520 	-1.53350 	-1.10925 	-0.74605 	-1.44110 	-1.63430 	-1.03310 	-0.54185 	-1.06390 	-1.03150 	-0.69110 	-0.11775 	-0.68505 	-0.42565 	-0.44665 	-0.05895 	-0.41155 	-0.43065 	-0.49975 	-0.39590 	-0.50785 
-1.99570 	-2.02355 	-2.09385 	-1.92605 	-1.40720 	-0.99085 	-1.74430 	-1.56545 	-1.13510 	-0.74865 	-1.48305 	-1.67715 	-1.07740 	-0.50540 	-1.12225 	-1.08120 	-0.71480 	-0.05615 	-0.73775 	-0.47125 	-0.48380 	-0.06245 	-0.44520 	-0.46000 	-0.50310 	-0.40260 	-0.50200 
-1.97810 	-2.02160 	-2.09430 	-1.93455 	-1.41615 	-0.98125 	-1.76155 	-1.59540 	-1.16565 	-0.74890 	-1.52125 	-1.71540 	-1.11705 	-0.46680 	-1.17455 	-1.12545 	-0.73415 	0.00465 	-0.78350 	-0.51010 	-0.51640 	-0.06290 	-0.47210 	-0.48335 	-0.50225 	-0.40615 	-0.49780 
-1.96185 	-2.01835 	-2.09455 	-1.94370 	-1.42910 	-0.96970 	-1.77690 	-1.62325 	-1.20090 	-0.74745 	-1.55605 	-1.74960 	-1.15205 	-0.42820 	-1.22105 	-1.16480 	-0.75010 	0.06275 	-0.82285 	-0.54285 	-0.54520 	-0.06075 	-0.49360 	-0.50175 	-0.49865 	-0.40770 	-0.49635 
-1.94765 	-2.01330 	-2.09500 	-1.95365 	-1.44660 	-0.95780 	-1.79070 	-1.64900 	-1.24000 	-0.74525 	-1.58765 	-1.78025 	-1.18235 	-0.39155 	-1.26195 	-1.19975 	-0.76330 	0.11655 	-0.85625 	-0.57000 	-0.57050 	-0.05635 	-0.51075 	-0.51610 	-0.49360 	-0.40810 	-0.49840 
-1.93580 	-2.00610 	-2.09570 	-1.96465 	-1.46865 	-0.94695 	-1.80290 	-1.67265 	-1.28150 	-0.74325 	-1.61635 	-1.80805 	-1.20775 	-0.35825 	-1.29745 	-1.23070 	-0.77440 	0.16470 	-0.88410 	-0.59190 	-0.59240 	-0.04975 	-0.52430 	-0.52685 	-0.48775 	-0.40785 	-0.50400 
-1.92615 	-1.99655 	-2.09695 	-1.97645 	-1.49500 	-0.93840 	-1.81375 	-1.69375 	-1.32350 	-0.74220 	-1.64240 	-1.83345 	-1.22815 	-0.32940 	-1.32765 	-1.25790 	-0.78365 	0.20620 	-0.90655 	-0.60860 	-0.61080 	-0.04100 	-0.53455 	-0.53435 	-0.48170 	-0.40700 	-0.51290 
-1.91855 	-1.98460 	-2.09875 	-1.98895 	-1.52475 	-0.93275 	-1.82330 	-1.71210 	-1.36420 	-0.74265 	-1.66600 	-1.85695 	-1.24325 	-0.30560 	-1.35260 	-1.28150 	-0.79155 	0.23990 	-0.92375 	-0.62030 	-0.62570 	-0.03035 	-0.54165 	-0.53860 	-0.47540 	-0.40520 	-0.52415 
-1.91275 	-1.97085 	-2.10130 	-2.00200 	-1.55710 	-0.93035 	-1.83180 	-1.72765 	-1.40195 	-0.74510 	-1.68760 	-1.87870 	-1.25260 	-0.28740 	-1.37245 	-1.30165 	-0.79840 	0.26445 	-0.93585 	-0.62720 	-0.63710 	-0.01830 	-0.54540 	-0.53965 	-0.46895 	-0.40210 	-0.53670 
-1.90855 	-1.95605 	-2.10490 	-2.01565 	-1.59115 	-0.93135 	-1.83965 	-1.74060 	-1.43595 	-0.75020 	-1.70740 	-1.89910 	-1.25615 	-0.27520 	-1.38750 	-1.31860 	-0.80460 	0.27850 	-0.94310 	-0.62955 	-0.64535 	-0.00565 	-0.54565 	-0.53745 	-0.46175 	-0.39720 	-0.54940 
-1.90595 	-1.94150 	-2.10995 	-2.03040 	-1.62660 	-0.93580 	-1.84775 	-1.75165 	-1.46600 	-0.75860 	-1.72600 	-1.91840 	-1.25410 	-0.26950 	-1.39820 	-1.33270 	-0.81050 	0.28075 	-0.94580 	-0.62775 	-0.65080 	0.00670 	-0.54230 	-0.53200 	-0.45360 	-0.38990 	-0.56115 
-1.90495 	-1.92880 	-2.11705 	-2.04665 	-1.66325 	-0.94365 	-1.85675 	-1.76170 	-1.49255 	-0.77075 	-1.74375 	-1.93680 	-1.24720 	-0.27040 	-1.40510 	-1.34405 	-0.81640 	0.27000 	-0.94420 	-0.62220 	-0.65370 	0.01765 	-0.53495 	-0.52325 	-0.44390 	-0.37985 	-0.57090 
-1.90570 	-1.91925 	-2.12655 	-2.06505 	-1.70095 	-0.95485 	-1.86710 	-1.77175 	-1.51630 	-0.78720 	-1.76085 	-1.95430 	-1.23630 	-0.27800 	-1.40840 	-1.35275 	-0.82235 	0.24555 	-0.93855 	-0.61320 	-0.65450 	0.02640 	-0.52320 	-0.51100 	-0.43245 	-0.36645 	-0.57785 
-1.90820 	-1.91415 	-2.13850 	-2.08570 	-1.73915 	-0.96900 	-1.87925 	-1.78210 	-1.53775 	-0.80830 	-1.77730 	-1.97035 	-1.22260 	-0.29180 	-1.40830 	-1.35850 	-0.82805 	0.20715 	-0.92870 	-0.60090 	-0.65300 	0.03240 	-0.50645 	-0.49495 	-0.41865 	-0.34930 	-0.58135 
-1.91220 	-1.91425 	-2.15275 	-2.10825 	-1.77700 	-0.98540 	-1.89285 	-1.79295 	-1.55690 	-0.83425 	-1.79250 	-1.98425 	-1.20715 	-0.31140 	-1.40445 	-1.36075 	-0.83315 	0.15495 	-0.91440 	-0.58505 	-0.64905 	0.03545 	-0.48400 	-0.47470 	-0.40230 	-0.32775 	-0.58090 
-1.91745 	-1.91965 	-2.16870 	-2.13215 	-1.81290 	-1.00305 	-1.90750 	-1.80395 	-1.57310 	-0.86470 	-1.80580 	-1.99490 	-1.19085 	-0.33615 	-1.39650 	-1.35870 	-0.83690 	0.08985 	-0.89505 	-0.56535 	-0.64215 	0.03585 	-0.45525 	-0.45000 	-0.38330 	-0.30165 	-0.57595 
-1.92360 	-1.93020 	-2.18575 	-2.15630 	-1.84515 	-1.02090 	-1.92250 	-1.81445 	-1.58545 	-0.89880 	-1.81625 	-2.00125 	-1.17445 	-0.36570 	-1.38380 	-1.35150 	-0.83855 	0.01300 	-0.87020 	-0.54135 	-0.63175 	0.03425 	-0.41960 	-0.42060 	-0.36155 	-0.27055 	-0.56625 
-1.93025 	-1.94540 	-2.20320 	-2.17985 	-1.87190 	-1.03780 	-1.93715 	-1.82390 	-1.59275 	-0.93500 	-1.82295 	-2.00240 	-1.15840 	-0.39960 	-1.36585 	-1.33835 	-0.83720 	-0.07365 	-0.83935 	-0.51275 	-0.61720 	0.03150 	-0.37705 	-0.38625 	-0.33715 	-0.23455 	-0.55150 
-1.93715 	-1.96425 	-2.22060 	-2.20170 	-1.89190 	-1.05300 	-1.95080 	-1.83185 	-1.59420 	-0.97160 	-1.82515 	-1.99770 	-1.14285 	-0.43725 	-1.34215 	-1.31880 	-0.83220 	-0.16740 	-0.80210 	-0.47905 	-0.59795 	0.02865 	-0.32755 	-0.34700 	-0.31020 	-0.19365 	-0.53165 
-1.94390 	-1.98570 	-2.23740 	-2.22130 	-1.90430 	-1.06595 	-1.96315 	-1.83800 	-1.58945 	-1.00705 	-1.82240 	-1.98715 	-1.12805 	-0.47740 	-1.31240 	-1.29240 	-0.82290 	-0.26510 	-0.75835 	-0.44025 	-0.57360 	0.02680 	-0.27155 	-0.30295 	-0.28085 	-0.14825 	-0.50680 
-1.95030 	-2.00865 	-2.25360 	-2.23815 	-1.90905 	-1.07650 	-1.97385 	-1.84235 	-1.57885 	-1.04015 	-1.81435 	-1.97095 	-1.11410 	-0.51840 	-1.27645 	-1.25920 	-0.80900 	-0.36295 	-0.70810 	-0.39620 	-0.54405 	0.02675 	-0.20990 	-0.25430 	-0.24925 	-0.09860 	-0.47715 
-1.95610 	-2.03195 	-2.26925 	-2.25230 	-1.90670 	-1.08475 	-1.98285 	-1.84515 	-1.56325 	-1.07050 	-1.80125 	-1.94975 	-1.10140 	-0.55810 	-1.23460 	-1.21955 	-0.79045 	-0.45685 	-0.65195 	-0.34730 	-0.50935 	0.02915 	-0.14355 	-0.20135 	-0.21545 	-0.04545 	-0.44325 
-1.96120 	-2.05450 	-2.28450 	-2.26410 	-1.89835 	-1.09120 	-1.99040 	-1.84685 	-1.54410 	-1.09800 	-1.78365 	-1.92445 	-1.09035 	-0.59430 	-1.18740 	-1.17415 	-0.76725 	-0.54280 	-0.59060 	-0.29410 	-0.46990 	0.03455 	-0.07375 	-0.14460 	-0.17950 	0.01055 	-0.40565 
-1.96540 	-2.07550 	-2.29980 	-2.27430 	-1.88540 	-1.09635 	-1.99685 	-1.84795 	-1.52270 	-1.12265 	-1.76225 	-1.89635 	-1.08150 	-0.62505 	-1.13565 	-1.12395 	-0.73985 	-0.61680 	-0.52505 	-0.23730 	-0.42625 	0.04340 	-0.00165 	-0.08445 	-0.14135 	0.06885 	-0.36495 
-1.96865 	-2.09415 	-2.31560 	-2.28355 	-1.86945 	-1.10035 	-2.00285 	-1.84925 	-1.50040 	-1.14430 	-1.73815 	-1.86675 	-1.07515 	-0.64895 	-1.08030 	-1.06995 	-0.70850 	-0.67560 	-0.45645 	-0.17765 	-0.37890 	0.05610 	0.07160 	-0.02135 	-0.10080 	0.12875 	-0.32175 
-1.97070 	-2.11000 	-2.33210 	-2.29250 	-1.85195 	-1.10300 	-2.00875 	-1.85125 	-1.47830 	-1.16275 	-1.71240 	-1.83705 	-1.07150 	-0.66500 	-1.02255 	-1.01340 	-0.67380 	-0.71675 	-0.38575 	-0.11590 	-0.32845 	0.07295 	0.14515 	0.04430 	-0.05770 	0.18970 	-0.27665 
-1.97145 	-2.12275 	-2.34945 	-2.30170 	-1.83405 	-1.10405 	-2.01500 	-1.85445 	-1.45715 	-1.17775 	-1.68605 	-1.80815 	-1.07040 	-0.67315 	-0.96330 	-0.95535 	-0.63625 	-0.73905 	-0.31410 	-0.05275 	-0.27540 	0.09435 	0.21840 	0.11220 	-0.01170 	0.25135 	-0.22995 
-1.97080 	-2.13245 	-2.36780 	-2.31140 	-1.81690 	-1.10300 	-2.02190 	-1.85905 	-1.43765 	-1.18925 	-1.66000 	-1.78105 	-1.07115 	-0.67385 	-0.90350 	-0.89665 	-0.59665 	-0.74265 	-0.24240 	0.01110 	-0.22025 	0.12045 	0.29095 	0.18175 	0.03730 	0.31320 	-0.18230 
-1.96885 	-2.13955 	-2.38705 	-2.32180 	-1.80160 	-1.10000 	-2.02965 	-1.86510 	-1.42010 	-1.19775 	-1.63515 	-1.75620 	-1.07285 	-0.66805 	-0.84405 	-0.83810 	-0.55590 	-0.72900 	-0.17145 	0.07505 	-0.16385 	0.15110 	0.36245 	0.25250 	0.08905 	0.37475 	-0.13430 
-1.96615 	-2.14500 	-2.40730 	-2.33305 	-1.78905 	-1.09545 	-2.03855 	-1.87240 	-1.40510 	-1.20375 	-1.61215 	-1.73385 	-1.07420 	-0.65725 	-0.78570 	-0.78075 	-0.51500 	-0.70065 	-0.10230 	0.13815 	-0.10705 	0.18575 	0.43245 	0.32355 	0.14275 	0.43530 	-0.08685 
-1.96335 	-2.15005 	-2.42880 	-2.34515 	-1.78040 	-1.08990 	-2.04885 	-1.88065 	-1.39305 	-1.20795 	-1.59175 	-1.71390 	-1.07430 	-0.64295 	-0.72915 	-0.72535 	-0.47515 	-0.66050 	-0.03575 	0.19970 	-0.05100 	0.22340 	0.50070 	0.39385 	0.19760 	0.49400 	-0.04080 
-1.96125 	-2.15630 	-2.45170 	-2.35850 	-1.77670 	-1.08425 	-2.06080 	-1.88955 	-1.38465 	-1.21100 	-1.57445 	-1.69645 	-1.07230 	-0.62650 	-0.67510 	-0.67275 	-0.43755 	-0.61175 	0.02730 	0.25875 	0.00300 	0.26295 	0.56675 	0.46240 	0.25230 	0.55000 	0.00285 
-1.96120 	-2.16550 	-2.47660 	-2.37350 	-1.77920 	-1.07950 	-2.07490 	-1.89915 	-1.38040 	-1.21340 	-1.56080 	-1.68145 	-1.06780 	-0.60905 	-0.62425 	-0.62385 	-0.40340 	-0.55715 	0.08620 	0.31440 	0.05365 	0.30305 	0.63025 	0.52805 	0.30580 	0.60250 	0.04325 
-1.96435 	-2.17945 	-2.50395 	-2.39085 	-1.78870 	-1.07640 	-2.09175 	-1.90950 	-1.38110 	-1.21525 	-1.55120 	-1.66925 	-1.06110 	-0.59150 	-0.57710 	-0.57945 	-0.37400 	-0.49930 	0.14035 	0.36595 	0.09990 	0.34250 	0.69080 	0.58990 	0.35685 	0.65065 	0.07945 
-1.97210 	-2.20005 	-2.53450 	-2.41130 	-1.80595 	-1.07585 	-2.11180 	-1.92105 	-1.38730 	-1.21665 	-1.54615 	-1.66035 	-1.05285 	-0.57475 	-0.53435 	-0.54045 	-0.35035 	-0.44025 	0.18925 	0.41270 	0.14060 	0.38015 	0.74790 	0.64705 	0.40470 	0.69385 	0.11070 
-1.98575 	-2.22855 	-2.56895 	-2.43580 	-1.83125 	-1.07860 	-2.13585 	-1.93475 	-1.39980 	-1.21760 	-1.54615 	-1.65565 	-1.04400 	-0.55940 	-0.49655 	-0.50760 	-0.33320 	-0.38190 	0.23255 	0.45405 	0.17500 	0.41515 	0.80125 	0.69895 	0.44865 	0.73165 	0.13620 
-2.00635 	-2.26630 	-2.60805 	-2.46540 	-1.86490 	-1.08525 	-2.16470 	-1.95170 	-1.41935 	-1.21785 	-1.55175 	-1.65640 	-1.03590 	-0.54615 	-0.46440 	-0.48160 	-0.32300 	-0.32540 	0.26995 	0.48960 	0.20260 	0.44690 	0.85035 	0.74500 	0.48825 	0.76380 	0.15575 
-2.03465 	-2.31380 	-2.65250 	-2.50090 	-1.90680 	-1.09655 	-2.19905 	-1.97325 	-1.44665 	-1.21740 	-1.56345 	-1.66370 	-1.02970 	-0.53560 	-0.43825 	-0.46300 	-0.31990 	-0.27185 	0.30140 	0.51935 	0.22310 	0.47505 	0.89490 	0.78505 	0.52335 	0.79030 	0.16930 
-2.07110 	-2.37110 	-2.70300 	-2.54325 	-1.95660 	-1.11305 	-2.23965 	-2.00075 	-1.48230 	-1.21600 	-1.58165 	-1.67890 	-1.02710 	-0.52850 	-0.41855 	-0.45215 	-0.32385 	-0.22195 	0.32685 	0.54310 	0.23670 	0.49935 	0.93460 	0.81900 	0.55405 	0.81125 	0.17715 
-2.11575 	-2.43785 	-2.75995 	-2.59295 	-2.01390 	-1.13525 	-2.28685 	-2.03550 	-1.52650 	-1.21395 	-1.60655 	-1.70280 	-1.02950 	-0.52555 	-0.40555 	-0.44910 	-0.33455 	-0.17640 	0.34630 	0.56105 	0.24375 	0.51980 	0.96905 	0.84710 	0.58040 	0.82700 	0.17990 
-2.16820 	-2.51280 	-2.82345 	-2.65040 	-2.07800 	-1.16355 	-2.34110 	-2.07830 	-1.57900 	-1.21160 	-1.63815 	-1.73595 	-1.03830 	-0.52760 	-0.39920 	-0.45365 	-0.35140 	-0.13585 	0.36010 	0.57355 	0.24485 	0.53640 	0.99810 	0.86955 	0.60260 	0.83780 	0.17810 
-2.22785 	-2.59465 	-2.89345 	-2.71530 	-2.14775 	-1.19790 	-2.40230 	-2.12955 	-1.63895 	-1.20985 	-1.67630 	-1.77830 	-1.05455 	-0.53515 	-0.39920 	-0.46520 	-0.37370 	-0.10080 	0.36845 	0.58095 	0.24105 	0.54950 	1.02175 	0.88690 	0.62095 	0.84415 	0.17250 
