[Subject]	
[Date]	05/30/2016
[Time]	17:35:24
[Channels]	27
[Rate]	1000.000000
[Type]	Average
[Points]	1351
[Xmin]	-100.00000
[Sweeps]	5047
[Accepted]	69
[Rejected]	4978
[Domain]	Time
[Rows]	Points																									
[Electrode Labels]																											
[FP2]	        [AF4]	        [F2]	        [F4]	        [F6]	        [F8]	        [FC2]	        [FC4]	        [FC6]	        [FT8]	        [C2]	        [C4]	        [C6]	        [T8]	        [CP2]	        [CP4]	        [CP6]	        [TP8]	        [P2]	        [P4]	        [P6]	        [P8]	        [PO4]	        [PO6]	        [PO8]	        [O2]	        [CB2]	
[Electrode XUnits]																											
[Default]	[Default]	[Default]	[Default]	[Default]	[Default]	[Default]	[Default]	[Default]	[Default]	[Default]	[Default]	[Default]	[Default]	[Default]	[Default]	[Default]	[Default]	[Default]	[Default]	[Default]	[Default]	[Default]	[Default]	[Default]	[Default]	[Default]	
[Electrode YUnits]																											
[Default]	[Default]	[Default]	[Default]	[Default]	[Default]	[Default]	[Default]	[Default]	[Default]	[Default]	[Default]	[Default]	[Default]	[Default]	[Default]	[Default]	[Default]	[Default]	[Default]	[Default]	[Default]	[Default]	[Default]	[Default]	[Default]	[Default]	
[Average Data]
1.31680 	1.40505 	1.28740 	1.30035 	1.08100 	1.03445 	1.45340 	1.47970 	0.99315 	1.19730 	1.39000 	1.32020 	0.97380 	1.17610 	1.30845 	1.18910 	0.66240 	0.43215 	1.02195 	0.55255 	0.20840 	-0.15170 	0.00235 	-0.28920 	-0.34220 	-0.34100 	-0.06155 
1.33880 	1.40565 	1.32550 	1.35685 	1.14245 	1.10545 	1.51275 	1.54510 	1.07675 	1.35845 	1.46625 	1.38745 	1.06340 	1.27920 	1.42790 	1.29240 	0.73840 	0.57470 	1.14175 	0.67145 	0.29545 	-0.08115 	0.09270 	-0.20230 	-0.26175 	-0.29290 	-0.03720 
1.34975 	1.40150 	1.35345 	1.40465 	1.19950 	1.16790 	1.56140 	1.59950 	1.15240 	1.50705 	1.53320 	1.44605 	1.14375 	1.36675 	1.53920 	1.38800 	0.80825 	0.70840 	1.25535 	0.78635 	0.37950 	-0.00985 	0.17890 	-0.11885 	-0.18695 	-0.24785 	-0.02245 
1.35030 	1.39525 	1.37200 	1.44395 	1.25210 	1.22340 	1.59945 	1.64235 	1.21945 	1.64320 	1.59065 	1.49615 	1.21540 	1.43690 	1.64210 	1.47635 	0.87305 	0.82795 	1.36235 	0.89705 	0.46115 	0.06265 	0.26115 	-0.03845 	-0.11795 	-0.20535 	-0.01705 
1.34155 	1.38925 	1.38235 	1.47505 	1.30040 	1.27375 	1.62745 	1.67375 	1.27780 	1.76730 	1.63875 	1.53810 	1.27965 	1.48890 	1.73665 	1.55790 	0.93440 	0.92850 	1.46275 	1.00390 	0.54125 	0.13665 	0.34025 	0.03965 	-0.05450 	-0.16445 	-0.02010 
1.32455 	1.38460 	1.38550 	1.49835 	1.34425 	1.32035 	1.64595 	1.69410 	1.32780 	1.87925 	1.67765 	1.57270 	1.33805 	1.52245 	1.82305 	1.63340 	0.99410 	1.00600 	1.55660 	1.10705 	0.62045 	0.21220 	0.41695 	0.11625 	0.00395 	-0.12445 	-0.03035 
1.29985 	1.38105 	1.38190 	1.51400 	1.38310 	1.36335 	1.65525 	1.70370 	1.36990 	1.97785 	1.70740 	1.60035 	1.39190 	1.53700 	1.90130 	1.70325 	1.05325 	1.05715 	1.64385 	1.20645 	0.69905 	0.28870 	0.49190 	0.19185 	0.05775 	-0.08475 	-0.04680 
1.26765 	1.37720 	1.37180 	1.52200 	1.41615 	1.40165 	1.65540 	1.70315 	1.40490 	2.06060 	1.72790 	1.62180 	1.44225 	1.53190 	1.97105 	1.76755 	1.11270 	1.07950 	1.72420 	1.30160 	0.77720 	0.36500 	0.56550 	0.26650 	0.10705 	-0.04520 	-0.06825 
1.22790 	1.37075 	1.35495 	1.52220 	1.44290 	1.43340 	1.64650 	1.69335 	1.43380 	2.12415 	1.73905 	1.63780 	1.49015 	1.50650 	2.03200 	1.82655 	1.17275 	1.07185 	1.79720 	1.39200 	0.85480 	0.43985 	0.63780 	0.34010 	0.15230 	-0.00580 	-0.09360 
1.18080 	1.35905 	1.33150 	1.51500 	1.46360 	1.45685 	1.62910 	1.67615 	1.45805 	2.16525 	1.74135 	1.64960 	1.53660 	1.46060 	2.08435 	1.88060 	1.23360 	1.03495 	1.86300 	1.47735 	0.93215 	0.51225 	0.70930 	0.41265 	0.19405 	0.03390 	-0.12115 
1.12685 	1.33975 	1.30160 	1.50130 	1.47925 	1.47105 	1.60410 	1.65385 	1.47930 	2.18165 	1.73570 	1.65910 	1.58285 	1.39525 	2.12855 	1.93040 	1.29535 	0.97130 	1.92200 	1.55785 	1.00965 	0.58165 	0.78050 	0.48440 	0.23360 	0.07440 	-0.14910 
1.06685 	1.31070 	1.26595 	1.48210 	1.49135 	1.47565 	1.57290 	1.62925 	1.49895 	2.17240 	1.72370 	1.66835 	1.62990 	1.31260 	2.16545 	1.97690 	1.35830 	0.88550 	1.97490 	1.63380 	1.08770 	0.64820 	0.85215 	0.55610 	0.27250 	0.11660 	-0.17515 
1.00180 	1.27035 	1.22520 	1.45865 	1.50130 	1.47125 	1.53710 	1.60500 	1.51795 	2.13825 	1.70670 	1.67900 	1.67820 	1.21620 	2.19600 	2.02070 	1.42265 	0.78345 	2.02255 	1.70555 	1.16660 	0.71250 	0.92505 	0.62830 	0.31275 	0.16160 	-0.19665 
0.93240 	1.21765 	1.17975 	1.43160 	1.50985 	1.45850 	1.49790 	1.58285 	1.53645 	2.08115 	1.68600 	1.69205 	1.72690 	1.11060 	2.22105 	2.06210 	1.48805 	0.67195 	2.06560 	1.77335 	1.24610 	0.77545 	0.99975 	0.70170 	0.35600 	0.21020 	-0.21135 
0.85950 	1.15190 	1.12995 	1.40090 	1.51665 	1.43800 	1.45585 	1.56365 	1.55380 	2.00380 	1.66235 	1.70735 	1.77385 	1.00100 	2.24080 	2.10070 	1.55395 	0.55840 	2.10410 	1.83675 	1.32550 	0.83770 	1.07610 	0.77660 	0.40390 	0.26305 	-0.21715 
0.78360 	1.07315 	1.07560 	1.36625 	1.52060 	1.40995 	1.41140 	1.54685 	1.56925 	1.90930 	1.63590 	1.72380 	1.81570 	0.89310 	2.25510 	2.13550 	1.61905 	0.45000 	2.13765 	1.89515 	1.40345 	0.89960 	1.15365 	0.85285 	0.45730 	0.32030 	-0.21225 
0.70525 	0.98235 	1.01665 	1.32700 	1.52010 	1.37425 	1.36425 	1.53150 	1.58180 	1.80090 	1.60630 	1.73940 	1.84855 	0.79225 	2.26330 	2.16510 	1.68125 	0.35330 	2.16555 	1.94720 	1.47820 	0.96090 	1.23135 	0.93010 	0.51675 	0.38195 	-0.19550 
0.62505 	0.88140 	0.95305 	1.28255 	1.51360 	1.33070 	1.31410 	1.51590 	1.59095 	1.68210 	1.57310 	1.75200 	1.86860 	0.70360 	2.26445 	2.18770 	1.73850 	0.27440 	2.18660 	1.99150 	1.54780 	1.02100 	1.30805 	1.00755 	0.58225 	0.44770 	-0.16620 
0.54410 	0.77320 	0.88520 	1.23285 	1.50000 	1.27920 	1.26095 	1.49865 	1.59610 	1.55655 	1.53575 	1.75900 	1.87315 	0.63145 	2.25770 	2.20140 	1.78810 	0.21805 	2.19970 	2.02675 	1.61040 	1.07925 	1.38250 	1.08425 	0.65335 	0.51710 	-0.12425 
0.46330 	0.66140 	0.81405 	1.17820 	1.47880 	1.22005 	1.20485 	1.47830 	1.59685 	1.42750 	1.49390 	1.75820 	1.86065 	0.57890 	2.24225 	2.20470 	1.82770 	0.18760 	2.20375 	2.05155 	1.66455 	1.13450 	1.45345 	1.15920 	0.72905 	0.58970 	-0.07035 
0.38430 	0.55025 	0.74075 	1.11910 	1.45000 	1.15380 	1.14620 	1.45380 	1.59240 	1.29765 	1.44750 	1.74800 	1.83105 	0.54755 	2.21745 	2.19645 	1.85530 	0.18450 	2.19805 	2.06505 	1.70915 	1.18575 	1.51995 	1.23125 	0.80820 	0.66455 	-0.00585 
0.30845 	0.44420 	0.66695 	1.05655 	1.41400 	1.08190 	1.08575 	1.42430 	1.58165 	1.16910 	1.39670 	1.72725 	1.78555 	0.53775 	2.18320 	2.17595 	1.86990 	0.20890 	2.18230 	2.06685 	1.74405 	1.23220 	1.58120 	1.29960 	0.88925 	0.74075 	0.06735 
0.23730 	0.34740 	0.59455 	0.99145 	1.37145 	1.00600 	1.02450 	1.38955 	1.56350 	1.04380 	1.34215 	1.69585 	1.72655 	0.54920 	2.13980 	2.14330 	1.87160 	0.25980 	2.15675 	2.05725 	1.76965 	1.27345 	1.63705 	1.36370 	0.97095 	0.81735 	0.14700 
0.17255 	0.26360 	0.52565 	0.92510 	1.32305 	0.92845 	0.96385 	1.34980 	1.53705 	0.92350 	1.28485 	1.65445 	1.65715 	0.58065 	2.08795 	2.09940 	1.86160 	0.33565 	2.12220 	2.03730 	1.78740 	1.30975 	1.68775 	1.42340 	1.05230 	0.89360 	0.23090 
0.11555 	0.19575 	0.46225 	0.85880 	1.26950 	0.85175 	0.90515 	1.30560 	1.50160 	0.80975 	1.22620 	1.60440 	1.58055 	0.63080 	2.02900 	2.04570 	1.84210 	0.43490 	2.08000 	2.00860 	1.79920 	1.34180 	1.73405 	1.47915 	1.13285 	0.96895 	0.31690 
0.06770 	0.14560 	0.40650 	0.79400 	1.21145 	0.77800 	0.84975 	1.25800 	1.45700 	0.70375 	1.16735 	1.54730 	1.49955 	0.69760 	1.96400 	1.98365 	1.81540 	0.55580 	2.03145 	1.97310 	1.80710 	1.37060 	1.77675 	1.53145 	1.21245 	1.04300 	0.40330 
0.02965 	0.11365 	0.35965 	0.73180 	1.14950 	0.70900 	0.79870 	1.20815 	1.40360 	0.60605 	1.10950 	1.48470 	1.41655 	0.77845 	1.89395 	1.91465 	1.78365 	0.69615 	1.97785 	1.93240 	1.81285 	1.39730 	1.81640 	1.58105 	1.29120 	1.11535 	0.48835 
0.00160 	0.09855 	0.32240 	0.67305 	1.08415 	0.64555 	0.75225 	1.15680 	1.34180 	0.51665 	1.05275 	1.41770 	1.33340 	0.86980 	1.81905 	1.83950 	1.74860 	0.85315 	1.91970 	1.88765 	1.81745 	1.42265 	1.85330 	1.62815 	1.36890 	1.18525 	0.57055 
-0.01720 	0.09780 	0.29415 	0.61790 	1.01545 	0.58795 	0.70995 	1.10425 	1.27235 	0.43535 	0.99670 	1.34690 	1.25155 	0.96715 	1.73890 	1.75815 	1.71120 	1.02270 	1.85690 	1.83920 	1.82115 	1.44690 	1.88690 	1.67250 	1.44515 	1.25150 	0.64835 
-0.02845 	0.10695 	0.27335 	0.56550 	0.94285 	0.53580 	0.67000 	1.04960 	1.19505 	0.36150 	0.93980 	1.27200 	1.17145 	1.06510 	1.65210 	1.66985 	1.67140 	1.19920 	1.78830 	1.78630 	1.82305 	1.46970 	1.91560 	1.71300 	1.51855 	1.31255 	0.72005 
-0.03465 	0.12045 	0.25690 	0.51345 	0.86465 	0.48805 	0.62975 	0.99075 	1.10855 	0.29420 	0.87940 	1.19170 	1.09235 	1.15670 	1.55650 	1.57300 	1.62810 	1.37495 	1.71180 	1.72720 	1.82110 	1.48955 	1.93690 	1.74765 	1.58730 	1.36580 	0.78370 
-0.03910 	0.13170 	0.24060 	0.45860 	0.77800 	0.44280 	0.58530 	0.92420 	1.01025 	0.23205 	0.81190 	1.10360 	1.01190 	1.23435 	1.44920 	1.46505 	1.57885 	1.54025 	1.62460 	1.65910 	1.81220 	1.50450 	1.94745 	1.77345 	1.64835 	1.40850 	0.83700 
-0.04550 	0.13390 	0.21960 	0.39665 	0.67910 	0.39720 	0.53240 	0.84565 	0.89660 	0.17310 	0.73345 	1.00475 	0.92635 	1.28980 	1.32705 	1.34315 	1.52020 	1.68440 	1.52320 	1.57850 	1.79235 	1.51185 	1.94315 	1.78700 	1.69845 	1.43735 	0.87760 
-0.05760 	0.12070 	0.18890 	0.32350 	0.56435 	0.34785 	0.46685 	0.75090 	0.76400 	0.11485 	0.64015 	0.89180 	0.83160 	1.31525 	1.18710 	1.20445 	1.44840 	1.79715 	1.40450 	1.48195 	1.75740 	1.50865 	1.92000 	1.78465 	1.73420 	1.44920 	0.90305 
-0.07830 	0.08710 	0.14435 	0.23565 	0.43105 	0.29150 	0.38500 	0.63625 	0.60980 	0.05510 	0.52900 	0.76185 	0.72390 	1.30450 	1.02695 	1.04675 	1.35980 	1.86955 	1.26575 	1.36630 	1.70365 	1.49245 	1.87450 	1.76335 	1.75225 	1.44145 	0.91180 
-0.10955 	0.03035 	0.08285 	0.13090 	0.27785 	0.22500 	0.28430 	0.49920 	0.43295 	-0.00800 	0.39790 	0.61295 	0.60070 	1.25375 	0.84545 	0.86880 	1.25165 	1.89580 	1.10525 	1.22945 	1.62805 	1.46105 	1.80410 	1.72050 	1.75000 	1.41255 	0.90255 
-0.15195 	-0.05005 	0.00295 	0.00865 	0.10545 	0.14635 	0.16380 	0.33895 	0.23415 	-0.07570 	0.24630 	0.44385 	0.46085 	1.16220 	0.64245 	0.67055 	1.12230 	1.87325 	0.92260 	1.07030 	1.52870 	1.41315 	1.70730 	1.65460 	1.72570 	1.36165 	0.87490 
-0.20495 	-0.15235 	-0.09525 	-0.13010 	-0.08360 	0.05430 	0.02365 	0.15620 	0.01620 	-0.14845 	0.07495 	0.25445 	0.30475 	1.03190 	0.41890 	0.45275 	0.97135 	1.80240 	0.71830 	0.88885 	1.40480 	1.34805 	1.58395 	1.56525 	1.67825 	1.28905 	0.82915 
-0.26715 	-0.27280 	-0.21035 	-0.28300 	-0.28525 	-0.05120 	-0.13450 	-0.04655 	-0.21640 	-0.22595 	-0.11445 	0.04555 	0.13405 	0.86710 	0.17690 	0.21720 	0.79980 	1.68670 	0.49405 	0.68625 	1.25655 	1.26570 	1.43480 	1.45280 	1.60785 	1.19595 	0.76640 
-0.33650 	-0.40600 	-0.33945 	-0.44640 	-0.49415 	-0.16885 	-0.30810 	-0.26550 	-0.45755 	-0.30745 	-0.31915 	-0.18085 	-0.04830 	0.67390 	-0.08070 	-0.03370 	0.60990 	1.53145 	0.25235 	0.46445 	1.08535 	1.16690 	1.26180 	1.31885 	1.51550 	1.08420 	0.68845 
-0.41055 	-0.54560 	-0.47895 	-0.61595 	-0.70445 	-0.29590 	-0.49325 	-0.49545 	-0.70025 	-0.39165 	-0.53555 	-0.42170 	-0.23870 	0.45900 	-0.35030 	-0.29645 	0.40530 	1.34370 	-0.00335 	0.22645 	0.89370 	1.05320 	1.06785 	1.16565 	1.40340 	0.95645 	0.59770 
-0.48675 	-0.68480 	-0.62450 	-0.78695 	-0.91020 	-0.42860 	-0.68590 	-0.73035 	-0.93725 	-0.47725 	-0.75945 	-0.67295 	-0.43265 	0.22925 	-0.62755 	-0.56720 	0.19045 	1.13155 	-0.26920 	-0.02390 	0.68500 	0.92660 	0.85650 	0.99645 	1.27445 	0.81570 	0.49715 
-0.56230 	-0.81700 	-0.77160 	-0.95455 	-1.10605 	-0.56255 	-0.88110 	-0.96405 	-1.16210 	-0.56380 	-0.98640 	-0.92975 	-0.62555 	-0.00925 	-0.90775 	-0.84120 	-0.02940 	0.90355 	-0.54050 	-0.28225 	0.46375 	0.78970 	0.63200 	0.81505 	1.13250 	0.66535 	0.39000 
-0.63455 	-0.93620 	-0.91570 	-1.11470 	-1.28745 	-0.69335 	-1.07425 	-1.19060 	-1.36955 	-0.65140 	-1.21160 	-1.18655 	-0.81275 	-0.25130 	-1.18590 	-1.11355 	-0.24925 	0.66815 	-0.81280 	-0.54380 	0.23465 	0.64500 	0.39905 	0.62545 	0.98145 	0.50910 	0.27960 
-0.70100 	-1.03785 	-1.05275 	-1.26365 	-1.45080 	-0.81725 	-1.26095 	-1.40465 	-1.55615 	-0.74050 	-1.43050 	-1.43765 	-0.99040 	-0.49265 	-1.45715 	-1.37935 	-0.46415 	0.43310 	-1.08140 	-0.80385 	0.00250 	0.49495 	0.16210 	0.43180 	0.82535 	0.35030 	0.16900 
-0.75960 	-1.11875 	-1.17940 	-1.39875 	-1.59365 	-0.93125 	-1.43735 	-1.60210 	-1.71980 	-0.83165 	-1.63925 	-1.67765 	-1.15520 	-0.72980 	-1.71715 	-1.63405 	-0.67030 	0.20495 	-1.34210 	-1.05795 	-0.22820 	0.34175 	-0.07460 	0.23755 	0.66760 	0.19215 	0.06060 
-0.80890 	-1.17780 	-1.29310 	-1.51820 	-1.71430 	-1.03360 	-1.60035 	-1.78000 	-1.85980 	-0.92530 	-1.83440 	-1.90185 	-1.30495 	-0.95960 	-1.96220 	-1.87415 	-0.86475 	-0.01145 	-1.59150 	-1.30265 	-0.45380 	0.18705 	-0.30735 	0.04575 	0.51100 	0.03705 	-0.04375 
-0.84830 	-1.21555 	-1.39230 	-1.62085 	-1.81175 	-1.12360 	-1.74780 	-1.93635 	-1.97600 	-1.02135 	-2.01345 	-2.10625 	-1.43785 	-1.17890 	-2.18960 	-2.09675 	-1.04525 	-0.21305 	-1.82685 	-1.53490 	-0.67140 	0.03275 	-0.53320 	-0.14155 	0.35730 	-0.11315 	-0.14295 
-0.87760 	-1.23390 	-1.47610 	-1.70630 	-1.88560 	-1.20125 	-1.87805 	-2.07025 	-2.06860 	-1.11910 	-2.17415 	-2.28750 	-1.55285 	-1.38425 	-2.39720 	-2.29990 	-1.21080 	-0.39860 	-2.04605 	-1.75250 	-0.87865 	-0.11970 	-0.74980 	-0.32275 	0.20775 	-0.25715 	-0.23670 
-0.89705 	-1.23605 	-1.54430 	-1.77425 	-1.93590 	-1.26690 	-1.98990 	-2.18130 	-2.13770 	-1.21680 	-2.31520 	-2.44315 	-1.64900 	-1.57175 	-2.58355 	-2.48215 	-1.36090 	-0.56860 	-2.24755 	-1.95370 	-1.07385 	-0.26845 	-0.95520 	-0.49655 	0.06315 	-0.39400 	-0.32470 
-0.90735 	-1.22550 	-1.59690 	-1.82480 	-1.96280 	-1.32080 	-2.08265 	-2.26960 	-2.18350 	-1.31180 	-2.43540 	-2.57145 	-1.72575 	-1.73725 	-2.74750 	-2.64270 	-1.49565 	-0.72465 	-2.43025 	-2.13730 	-1.25560 	-0.41170 	-1.14760 	-0.66215 	-0.07590 	-0.52295 	-0.40675 
-0.90885 	-1.20610 	-1.63425 	-1.85820 	-1.96705 	-1.36290 	-2.15600 	-2.33580 	-2.20620 	-1.40060 	-2.53400 	-2.67165 	-1.78340 	-1.87695 	-2.88860 	-2.78095 	-1.61585 	-0.86935 	-2.59330 	-2.30230 	-1.42285 	-0.54795 	-1.32570 	-0.81845 	-0.20855 	-0.64335 	-0.48255 
-0.90230 	-1.18140 	-1.65680 	-1.87485 	-1.94965 	-1.39310 	-2.21000 	-2.38075 	-2.20655 	-1.47935 	-2.61085 	-2.74390 	-1.82260 	-1.98755 	-3.00660 	-2.89695 	-1.72265 	-1.00545 	-2.73630 	-2.44820 	-1.57485 	-0.67580 	-1.48830 	-0.96475 	-0.33440 	-0.75455 	-0.55140 
-0.88820 	-1.15440 	-1.66520 	-1.87545 	-1.91215 	-1.41115 	-2.24490 	-2.40550 	-2.18615 	-1.54430 	-2.66595 	-2.78875 	-1.84515 	-2.06705 	-3.10165 	-2.99075 	-1.81750 	-1.13550 	-2.85905 	-2.57460 	-1.71135 	-0.79445 	-1.63470 	-1.10025 	-0.45280 	-0.85615 	-0.61295 
-0.86705 	-1.12715 	-1.66025 	-1.86065 	-1.85660 	-1.41720 	-2.26115 	-2.41095 	-2.14685 	-1.59270 	-2.69965 	-2.80735 	-1.85300 	-2.11490 	-3.17385 	-3.06255 	-1.90130 	-1.26110 	-2.96145 	-2.68135 	-1.83215 	-0.90325 	-1.76430 	-1.22440 	-0.56365 	-0.94780 	-0.66675 
-0.83905 	-1.10080 	-1.64255 	-1.83130 	-1.78550 	-1.41150 	-2.25925 	-2.39780 	-2.09140 	-1.62285 	-2.71215 	-2.80085 	-1.84840 	-2.13155 	-3.22345 	-3.11230 	-1.97440 	-1.38270 	-3.04330 	-2.76810 	-1.93680 	-1.00180 	-1.87680 	-1.33645 	-0.66670 	-1.02905 	-0.71240 
-0.80440 	-1.07525 	-1.61245 	-1.78830 	-1.70170 	-1.39445 	-2.23935 	-2.36655 	-2.02230 	-1.63415 	-2.70350 	-2.77000 	-1.83315 	-2.11870 	-3.25020 	-3.13950 	-2.03595 	-1.49955 	-3.10400 	-2.83405 	-2.02490 	-1.08955 	-1.97155 	-1.43565 	-0.76175 	-1.09930 	-0.74930 
-0.76295 	-1.04925 	-1.57030 	-1.73235 	-1.60815 	-1.36645 	-2.20165 	-2.31750 	-1.94235 	-1.62660 	-2.67360 	-2.71530 	-1.80895 	-2.07855 	-3.25375 	-3.14345 	-2.08465 	-1.61010 	-3.14285 	-2.87825 	-2.09540 	-1.16590 	-2.04810 	-1.52115 	-0.84850 	-1.15780 	-0.77655 
-0.71450 	-1.02080 	-1.51645 	-1.66440 	-1.50795 	-1.32810 	-2.14650 	-2.25100 	-1.85425 	-1.60050 	-2.62265 	-2.63760 	-1.77705 	-2.01390 	-3.23380 	-3.12330 	-2.11885 	-1.71240 	-3.15905 	-2.89985 	-2.14750 	-1.23040 	-2.10590 	-1.59200 	-0.92675 	-1.20375 	-0.79375 
-0.65910 	-0.98725 	-1.45140 	-1.58550 	-1.40435 	-1.27975 	-2.07450 	-2.16820 	-1.76045 	-1.55640 	-2.55125 	-2.53795 	-1.73855 	-1.92800 	-3.19040 	-3.07905 	-2.13720 	-1.80465 	-3.15235 	-2.89825 	-2.18065 	-1.28280 	-2.14470 	-1.64755 	-0.99630 	-1.23680 	-0.80055 
-0.59675 	-0.94600 	-1.37575 	-1.49700 	-1.30030 	-1.22210 	-1.98675 	-2.07045 	-1.66335 	-1.49470 	-2.46020 	-2.41815 	-1.69465 	-1.82395 	-3.12420 	-3.01100 	-2.13865 	-1.88490 	-3.12265 	-2.87340 	-2.19480 	-1.32315 	-2.16480 	-1.68770 	-1.05715 	-1.25690 	-0.79730 
-0.52755 	-0.89410 	-1.28995 	-1.40000 	-1.19795 	-1.15550 	-1.88410 	-1.95940 	-1.56465 	-1.41620 	-2.35085 	-2.28020 	-1.64610 	-1.70505 	-3.03580 	-2.92000 	-2.12245 	-1.95095 	-3.07045 	-2.82565 	-2.19005 	-1.35135 	-2.16630 	-1.71215 	-1.10915 	-1.26420 	-0.78460 
-0.45145 	-0.82875 	-1.19430 	-1.29530 	-1.09855 	-1.08005 	-1.76745 	-1.83660 	-1.46500 	-1.32215 	-2.22405 	-2.12630 	-1.59305 	-1.57415 	-2.92595 	-2.80700 	-2.08775 	-1.99970 	-2.99590 	-2.75540 	-2.16670 	-1.36695 	-2.14960 	-1.72080 	-1.15200 	-1.25870 	-0.76300 
-0.36820 	-0.74755 	-1.08850 	-1.18325 	-1.00200 	-0.99555 	-1.63730 	-1.70290 	-1.36380 	-1.21420 	-2.08055 	-1.95820 	-1.53485 	-1.43345 	-2.79520 	-2.67300 	-2.03385 	-2.02750 	-2.89940 	-2.66300 	-2.12475 	-1.36895 	-2.11450 	-1.71320 	-1.18465 	-1.24010 	-0.73260 
-0.27750 	-0.64870 	-0.97225 	-1.06370 	-0.90725 	-0.90185 	-1.49395 	-1.55885 	-1.25965 	-1.09430 	-1.92090 	-1.77735 	-1.47045 	-1.28490 	-2.64425 	-2.51890 	-1.96015 	-2.03020 	-2.78110 	-2.54890 	-2.06420 	-1.35600 	-2.06090 	-1.68875 	-1.20585 	-1.20795 	-0.69315 
-0.17950 	-0.53170 	-0.84540 	-0.93675 	-0.81230 	-0.79920 	-1.33795 	-1.40505 	-1.15040 	-0.96485 	-1.74615 	-1.58520 	-1.39860 	-1.13025 	-2.47395 	-2.34610 	-1.86680 	-2.00420 	-2.64170 	-2.41395 	-1.98545 	-1.32700 	-1.98885 	-1.64700 	-1.21435 	-1.16195 	-0.64420 
-0.07485 	-0.39785 	-0.70845 	-0.80265 	-0.71515 	-0.68840 	-1.17030 	-1.24255 	-1.03430 	-0.82820 	-1.55760 	-1.38385 	-1.31870 	-0.97130 	-2.28590 	-2.15655 	-1.75510 	-1.94695 	-2.48240 	-2.25955 	-1.88925 	-1.28145 	-1.89885 	-1.58805 	-1.20900 	-1.10205 	-0.58545 
0.03470 	-0.25020 	-0.56300 	-0.66260 	-0.61425 	-0.57120 	-0.99325 	-1.07325 	-0.91025 	-0.68715 	-1.35785 	-1.17610 	-1.23065 	-0.80995 	-2.08275 	-1.95325 	-1.62755 	-1.85740 	-2.30520 	-2.08815 	-1.77730 	-1.22030 	-1.79220 	-1.51280 	-1.18955 	-1.02920 	-0.51720 
0.14665 	-0.09370 	-0.41165 	-0.51875 	-0.50890 	-0.45020 	-0.80975 	-0.90020 	-0.77830 	-0.54505 	-1.15050 	-0.96570 	-1.13570 	-0.64825 	-1.86820 	-1.74005 	-1.48805 	-1.73680 	-2.11345 	-1.90305 	-1.65205 	-1.14555 	-1.67140 	-1.42320 	-1.15685 	-0.94510 	-0.44060 
0.25760 	0.06510 	-0.25810 	-0.37410 	-0.39955 	-0.32900 	-0.62405 	-0.72725 	-0.63995 	-0.40670 	-0.93990 	-0.75720 	-1.03585 	-0.48860 	-1.64660 	-1.52160 	-1.34130 	-1.58820 	-1.91095 	-1.70845 	-1.51675 	-1.06050 	-1.53955 	-1.32225 	-1.11275 	-0.85240 	-0.35795 
0.36360 	0.21890 	-0.10680 	-0.23205 	-0.28750 	-0.21180 	-0.44065 	-0.55855 	-0.49745 	-0.27780 	-0.73100 	-0.55515 	-0.93395 	-0.33335 	-1.42305 	-1.30290 	-1.19255 	-1.41635 	-1.70245 	-1.50910 	-1.37550 	-0.96925 	-1.40075 	-1.21370 	-1.05980 	-0.75450 	-0.27235 
0.46060 	0.36020 	0.03780 	-0.09620 	-0.17475 	-0.10260 	-0.26440 	-0.39825 	-0.35365 	-0.16485 	-0.52865 	-0.36400 	-0.83325 	-0.18455 	-1.20260 	-1.08870 	-1.04695 	-1.22740 	-1.49255 	-1.30970 	-1.23225 	-0.87615 	-1.25930 	-1.10175 	-1.00125 	-0.65515 	-0.18745 
0.54480 	0.48235 	0.17135 	0.03030 	-0.06395 	-0.00505 	-0.09960 	-0.24975 	-0.21120 	-0.07365 	-0.33730 	-0.18775 	-0.73700 	-0.04415 	-0.98980 	-0.88340 	-0.90940 	-1.02815 	-1.28595 	-1.11495 	-1.09115 	-0.78500 	-1.11940 	-0.99045 	-0.94015 	-0.55815 	-0.10685 
0.61305 	0.57970 	0.29000 	0.14435 	0.04210 	0.07795 	0.04975 	-0.11615 	-0.07305 	-0.00825 	-0.16075 	-0.02980 	-0.64840 	0.08650 	-0.78890 	-0.69085 	-0.78390 	-0.82595 	-1.08665 	-0.92880 	-0.95615 	-0.69950 	-0.98515 	-0.88355 	-0.87945 	-0.46695 	-0.03370 
0.66265 	0.64825 	0.39055 	0.24355 	0.13970 	0.14425 	0.18035 	-0.00005 	0.05760 	0.02990 	-0.00230 	0.10670 	-0.57005 	0.20610 	-0.60310 	-0.51415 	-0.67385 	-0.62835 	-0.89835 	-0.75485 	-0.83080 	-0.62265 	-0.86020 	-0.78435 	-0.82180 	-0.38445 	0.02950 
0.69180 	0.68590 	0.47050 	0.32580 	0.22510 	0.19260 	0.28970 	0.09645 	0.17760 	0.04200 	0.13560 	0.21920 	-0.50380 	0.31300 	-0.43525 	-0.35600 	-0.58165 	-0.44220 	-0.72385 	-0.59595 	-0.71830 	-0.55690 	-0.74735 	-0.69550 	-0.76920 	-0.31300 	0.08115 
0.69925 	0.69230 	0.52830 	0.38965 	0.29485 	0.22240 	0.37620 	0.17215 	0.28355 	0.03175 	0.25100 	0.30570 	-0.45005 	0.40545 	-0.28705 	-0.21815 	-0.50840 	-0.27350 	-0.56535 	-0.45410 	-0.62100 	-0.50380 	-0.64875 	-0.61870 	-0.72325 	-0.25370 	0.12095 
0.68455 	0.66905 	0.56345 	0.43430 	0.34630 	0.23420 	0.43925 	0.22665 	0.37270 	0.00430 	0.34340 	0.36535 	-0.40810 	0.48095 	-0.15935 	-0.10150 	-0.45375 	-0.12670 	-0.42405 	-0.33025 	-0.54015 	-0.46445 	-0.56545 	-0.55485 	-0.68500 	-0.20695 	0.14930 
0.64800 	0.61950 	0.57650 	0.45990 	0.37800 	0.22940 	0.47955 	0.26050 	0.44275 	-0.03410 	0.41320 	0.39870 	-0.37595 	0.53660 	-0.05195 	-0.00585 	-0.41635 	-0.00470 	-0.30010 	-0.22450 	-0.47600 	-0.43875 	-0.49750 	-0.50400 	-0.65460 	-0.17215 	0.16775 
0.59095 	0.54830 	0.56925 	0.46740 	0.38995 	0.21010 	0.49880 	0.27565 	0.49230 	-0.07760 	0.46170 	0.40745 	-0.35095 	0.56945 	0.03625 	0.07010 	-0.39365 	0.09085 	-0.19270 	-0.13580 	-0.42760 	-0.42605 	-0.44430 	-0.46515 	-0.63210 	-0.14810 	0.17815 
0.51545 	0.46120 	0.54430 	0.45835 	0.38300 	0.17875 	0.49960 	0.27480 	0.52080 	-0.12130 	0.49165 	0.39490 	-0.33045 	0.57705 	0.10720 	0.12855 	-0.38270 	0.15935 	-0.10065 	-0.06250 	-0.39325 	-0.42515 	-0.40420 	-0.43705 	-0.61680 	-0.13315 	0.18250 
0.42405 	0.36400 	0.50495 	0.43490 	0.35875 	0.13755 	0.48520 	0.26155 	0.52870 	-0.16225 	0.50595 	0.36535 	-0.31190 	0.55770 	0.16340 	0.17210 	-0.38025 	0.20080 	-0.02200 	-0.00255 	-0.37070 	-0.43445 	-0.37540 	-0.41800 	-0.60815 	-0.12570 	0.18270 
0.31985 	0.26255 	0.45485 	0.39940 	0.31900 	0.08815 	0.45890 	0.23950 	0.51695 	-0.19955 	0.50830 	0.32370 	-0.29385 	0.51075 	0.20735 	0.20385 	-0.38330 	0.21545 	0.04510 	0.04615 	-0.35780 	-0.45240 	-0.35605 	-0.40650 	-0.60540 	-0.12415 	0.18015 
0.20590 	0.16180 	0.39750 	0.35405 	0.26570 	0.03190 	0.42420 	0.21245 	0.48710 	-0.23405 	0.50210 	0.27520 	-0.27535 	0.43700 	0.24170 	0.22660 	-0.38885 	0.20430 	0.10255 	0.08560 	-0.35230 	-0.47755 	-0.34410 	-0.40110 	-0.60805 	-0.12735 	0.17555 
0.08560 	0.06575 	0.33615 	0.30110 	0.20090 	-0.03025 	0.38400 	0.18350 	0.44065 	-0.26795 	0.49050 	0.22470 	-0.25670 	0.33920 	0.26885 	0.24320 	-0.39440 	0.16945 	0.15205 	0.11790 	-0.35230 	-0.50840 	-0.33765 	-0.40055 	-0.61550 	-0.13435 	0.16925 
-0.03765 	-0.02270 	0.27375 	0.24290 	0.12710 	-0.09705 	0.34125 	0.15515 	0.37970 	-0.30315 	0.47630 	0.17625 	-0.23850 	0.22165 	0.29095 	0.25600 	-0.39775 	0.11425 	0.19520 	0.14475 	-0.35575 	-0.54335 	-0.33470 	-0.40360 	-0.62700 	-0.14415 	0.16120 
-0.16025 	-0.10170 	0.21290 	0.18165 	0.04755 	-0.16665 	0.29830 	0.12920 	0.30705 	-0.34145 	0.46185 	0.13315 	-0.22160 	0.09065 	0.30995 	0.26710 	-0.39720 	0.04405 	0.23370 	0.16790 	-0.36060 	-0.58065 	-0.33340 	-0.40880 	-0.64155 	-0.15580 	0.15130 
-0.27880 	-0.17030 	0.15580 	0.11995 	-0.03420 	-0.23695 	0.25740 	0.10695 	0.22635 	-0.38350 	0.44885 	0.09745 	-0.20630 	-0.04665 	0.32755 	0.27835 	-0.39155 	-0.03475 	0.26905 	0.18910 	-0.36490 	-0.61845 	-0.33155 	-0.41485 	-0.65780 	-0.16810 	0.13990 
-0.39030 	-0.22885 	0.10415 	0.05985 	-0.11465 	-0.30575 	0.22015 	0.08910 	0.14170 	-0.42900 	0.43855 	0.07040 	-0.19265 	-0.18285 	0.34515 	0.29080 	-0.38045 	-0.11490 	0.30275 	0.20995 	-0.36680 	-0.65495 	-0.32735 	-0.42015 	-0.67425 	-0.17975 	0.12710 
-0.49215 	-0.27845 	0.05900 	0.00340 	-0.19085 	-0.37120 	0.18790 	0.07600 	0.05725 	-0.47685 	0.43190 	0.05240 	-0.18010 	-0.31150 	0.36400 	0.30545 	-0.36410 	-0.18960 	0.33605 	0.23150 	-0.36490 	-0.68845 	-0.31930 	-0.42335 	-0.68960 	-0.18980 	0.11315 
-0.58285 	-0.32090 	0.02090 	-0.04790 	-0.26045 	-0.43195 	0.16135 	0.06780 	-0.02360 	-0.52550 	0.42930 	0.04325 	-0.16820 	-0.42760 	0.38460 	0.32265 	-0.34320 	-0.25310 	0.37020 	0.25465 	-0.35815 	-0.71745 	-0.30615 	-0.42335 	-0.70260 	-0.19725 	0.09830 
-0.66140 	-0.35845 	-0.01010 	-0.09290 	-0.32185 	-0.48695 	0.14110 	0.06430 	-0.09790 	-0.57305 	0.43080 	0.04240 	-0.15635 	-0.52820 	0.40745 	0.34235 	-0.31870 	-0.30125 	0.40580 	0.27960 	-0.34600 	-0.74085 	-0.28720 	-0.41920 	-0.71220 	-0.20145 	0.08235 
-0.72785 	-0.39330 	-0.03430 	-0.13080 	-0.37380 	-0.53550 	0.12720 	0.06535 	-0.16405 	-0.61775 	0.43620 	0.04900 	-0.14430 	-0.61190 	0.43265 	0.36445 	-0.29160 	-0.33210 	0.44340 	0.30640 	-0.32820 	-0.75760 	-0.26230 	-0.41030 	-0.71770 	-0.20195 	0.06545 
-0.78265 	-0.42760 	-0.05240 	-0.16130 	-0.41545 	-0.57700 	0.11930 	0.07000 	-0.22105 	-0.65745 	0.44495 	0.06210 	-0.13200 	-0.67930 	0.46010 	0.38840 	-0.26290 	-0.34580 	0.48315 	0.33485 	-0.30485 	-0.76700 	-0.23135 	-0.39600 	-0.71865 	-0.19835 	0.04755 
-0.82695 	-0.46310 	-0.06535 	-0.18460 	-0.44670 	-0.61085 	0.11690 	0.07740 	-0.26890 	-0.69000 	0.45640 	0.08070 	-0.11970 	-0.73225 	0.48960 	0.41390 	-0.23340 	-0.34420 	0.52500 	0.36475 	-0.27620 	-0.76865 	-0.19465 	-0.37600 	-0.71485 	-0.19045 	0.02910 
-0.86200 	-0.50075 	-0.07390 	-0.20135 	-0.46795 	-0.63655 	0.11945 	0.08630 	-0.30830 	-0.71300 	0.46980 	0.10395 	-0.10770 	-0.77335 	0.52095 	0.44060 	-0.20370 	-0.33010 	0.56885 	0.39585 	-0.24255 	-0.76230 	-0.15240 	-0.34985 	-0.70595 	-0.17805 	0.01080 
-0.88880 	-0.54065 	-0.07890 	-0.21220 	-0.48045 	-0.65360 	0.12630 	0.09565 	-0.34050 	-0.72440 	0.48465 	0.13125 	-0.09610 	-0.80535 	0.55440 	0.46875 	-0.17405 	-0.30665 	0.61475 	0.42855 	-0.20395 	-0.74795 	-0.10475 	-0.31680 	-0.69165 	-0.16055 	-0.00625 
-0.90840 	-0.58175 	-0.08055 	-0.21805 	-0.48580 	-0.66185 	0.13760 	0.10470 	-0.36705 	-0.72290 	0.50105 	0.16230 	-0.08470 	-0.83080 	0.59020 	0.49845 	-0.14440 	-0.27665 	0.66315 	0.46315 	-0.16040 	-0.72545 	-0.05145 	-0.27625 	-0.67115 	-0.13730 	-0.02060 
-0.92105 	-0.62170 	-0.07845 	-0.21965 	-0.48590 	-0.66125 	0.15345 	0.11355 	-0.38980 	-0.70880 	0.51955 	0.19725 	-0.07300 	-0.85150 	0.62910 	0.53035 	-0.11435 	-0.24245 	0.71430 	0.50060 	-0.11170 	-0.69460 	0.00770 	-0.22725 	-0.64345 	-0.10760 	-0.03075 
-0.92665 	-0.65765 	-0.07185 	-0.21720 	-0.48270 	-0.65195 	0.17475 	0.12280 	-0.41000 	-0.68360 	0.54125 	0.23660 	-0.06020 	-0.86785 	0.67185 	0.56535 	-0.08320 	-0.20550 	0.76890 	0.54185 	-0.05730 	-0.65510 	0.07340 	-0.16895 	-0.60710 	-0.07055 	-0.03515 
-0.92460 	-0.68540 	-0.05915 	-0.21015 	-0.47675 	-0.63365 	0.20265 	0.13410 	-0.42795 	-0.64980 	0.56765 	0.28115 	-0.04480 	-0.87920 	0.71960 	0.60440 	-0.04955 	-0.16645 	0.82780 	0.58825 	0.00370 	-0.60590 	0.14670 	-0.10005 	-0.55975 	-0.02525 	-0.03220 
-0.91335 	-0.70050 	-0.03815 	-0.19720 	-0.46755 	-0.60555 	0.23895 	0.14980 	-0.44185 	-0.60955 	0.60080 	0.33220 	-0.02480 	-0.88285 	0.77385 	0.64915 	-0.01155 	-0.12495 	0.89225 	0.64150 	0.07305 	-0.54575 	0.22925 	-0.01905 	-0.49835 	0.02985 	-0.01985 
-0.89105 	-0.69805 	-0.00625 	-0.17585 	-0.45285 	-0.56650 	0.28575 	0.17275 	-0.44800 	-0.56390 	0.64300 	0.39110 	0.00260 	-0.87485 	0.83635 	0.70145 	0.03310 	-0.07970 	0.96405 	0.70375 	0.15285 	-0.47250 	0.32335 	0.07615 	-0.41940 	0.09675 	0.00415 
-0.85530 	-0.67345 	0.03975 	-0.14305 	-0.42910 	-0.51440 	0.34555 	0.20640 	-0.44120 	-0.51230 	0.69680 	0.45945 	0.04065 	-0.84995 	0.90920 	0.76340 	0.08705 	-0.02860 	1.04515 	0.77735 	0.24565 	-0.38385 	0.43165 	0.18785 	-0.31920 	0.17775 	0.04280 
-0.80350 	-0.62295 	0.10275 	-0.09550 	-0.39210 	-0.44740 	0.42075 	0.25405 	-0.41535 	-0.45230 	0.76455 	0.53890 	0.09265 	-0.80245 	0.99440 	0.83735 	0.15300 	0.03105 	1.13775 	0.86475 	0.35385 	-0.27750 	0.55700 	0.31835 	-0.19455 	0.27555 	0.09900 
-0.73340 	-0.54390 	0.18540 	-0.02985 	-0.33795 	-0.36325 	0.51350 	0.31880 	-0.36480 	-0.37980 	0.84850 	0.63080 	0.16220 	-0.72690 	1.09405 	0.92545 	0.23375 	0.10195 	1.24415 	0.96830 	0.47980 	-0.15115 	0.70235 	0.47010 	-0.04265 	0.39275 	0.17610 
-0.64320 	-0.43520 	0.28975 	0.05625 	-0.26325 	-0.26010 	0.62580 	0.40305 	-0.28480 	-0.28945 	0.95070 	0.73640 	0.25255 	-0.61850 	1.21020 	1.03015 	0.33200 	0.18715 	1.36665 	1.09025 	0.62575 	-0.00255 	0.87040 	0.64540 	0.13855 	0.53230 	0.27755 
-0.53130 	-0.29715 	0.41715 	0.16470 	-0.16590 	-0.13585 	0.75900 	0.50850 	-0.17220 	-0.17545 	1.07285 	0.85680 	0.36645 	-0.47325 	1.34480 	1.15365 	0.45105 	0.28945 	1.50760 	1.23290 	0.79385 	0.17040 	1.06385 	0.84655 	0.35070 	0.69705 	0.40690 
-0.39715 	-0.13155 	0.56850 	0.29635 	-0.04465 	0.01150 	0.91400 	0.63590 	-0.02560 	-0.03180 	1.21625 	0.99265 	0.50625 	-0.28805 	1.49965 	1.29830 	0.59390 	0.41205 	1.66925 	1.39840 	0.98645 	0.37025 	1.28525 	1.07595 	0.59515 	0.88995 	0.56760 
-0.24025 	0.05915 	0.74360 	0.45105 	0.10040 	0.18405 	1.09110 	0.78500 	0.15445 	0.14685 	1.38175 	1.14450 	0.67315 	-0.06045 	1.67605 	1.46605 	0.76345 	0.55825 	1.85360 	1.58865 	1.20570 	0.59930 	1.53680 	1.33575 	0.87295 	1.11395 	0.76300 
-0.06070 	0.27130 	0.94170 	0.62805 	0.26860 	0.38330 	1.28975 	0.95460 	0.36575 	0.36395 	1.56950 	1.31190 	0.86760 	0.21080 	1.87480 	1.65805 	0.96165 	0.73155 	2.06220 	1.80510 	1.45310 	0.85985 	1.81985 	1.62765 	1.18465 	1.37110 	0.99560 
0.14070 	0.50105 	1.16120 	0.82555 	0.45850 	0.61060 	1.50880 	1.14245 	0.60470 	0.62125 	1.77885 	1.49410 	1.08870 	0.52620 	2.09565 	1.87455 	1.18960 	0.93555 	2.29540 	2.04785 	1.72945 	1.15350 	2.13505 	1.95220 	1.53015 	1.66310 	1.26670 
0.36310 	0.74430 	1.40000 	1.04160 	0.66845 	0.86630 	1.74630 	1.34615 	0.86735 	0.91825 	2.00830 	1.68970 	1.33470 	0.88480 	2.33750 	2.11470 	1.44670 	1.17350 	2.55275 	2.31640 	2.03435 	1.48085 	2.48145 	2.30900 	1.90830 	1.98995 	1.57630 
0.60485 	0.99720 	1.65535 	1.27380 	0.89665 	1.14990 	1.99995 	1.56270 	1.14970 	1.25230 	2.25560 	1.89685 	1.60310 	1.28380 	2.59820 	2.37620 	1.73095 	1.44750 	2.83240 	2.60860 	2.36595 	1.84095 	2.85690 	2.69595 	2.31680 	2.35045 	1.92265 
0.86390 	1.25590 	1.92395 	1.51945 	1.14125 	1.45925 	2.26650 	1.78890 	1.44830 	1.61845 	2.51745 	2.11300 	1.89035 	1.71835 	2.87420 	2.65555 	2.03870 	1.75745 	3.13105 	2.92080 	2.72075 	2.23075 	3.25720 	3.10930 	2.75170 	2.74125 	2.30185 
1.13640 	1.51620 	2.20150 	1.77510 	1.39960 	1.79005 	2.54180 	2.02080 	1.75970 	2.00960 	2.78925 	2.33445 	2.19170 	2.18045 	3.16030 	2.94705 	2.36395 	2.09970 	3.44335 	3.24745 	3.09300 	2.64455 	3.67595 	3.54295 	3.20680 	3.15650 	2.70770 
1.41675 	1.77325 	2.48205 	2.03565 	1.66770 	2.13545 	2.81975 	2.25285 	2.07935 	2.41615 	3.06450 	2.55585 	2.50085 	2.65885 	3.44930 	3.24305 	2.69855 	2.46635 	3.76145 	3.58040 	3.47450 	3.07345 	4.10420 	3.98800 	3.67335 	3.58750 	3.13095 
1.69680 	2.02050 	2.75765 	2.29390 	1.93895 	2.48560 	3.09215 	2.47730 	2.40055 	2.82600 	3.33410 	2.76900 	2.80890 	3.13865 	3.73125 	3.53300 	3.03140 	2.84420 	4.07475 	3.90865 	3.85380 	3.50480 	4.52955 	4.43230 	4.13945 	4.02185 	3.55890 
1.96510 	2.24935 	3.01735 	2.53970 	2.20365 	2.82740 	3.34780 	2.68345 	2.71285 	3.22455 	3.58610 	2.96300 	3.10430 	3.60135 	3.99320 	3.80340 	3.34840 	3.21500 	4.36930 	4.21800 	4.21625 	3.92215 	4.93610 	4.86000 	4.58945 	4.44350 	3.97510 
2.20730 	2.44865 	3.24745 	2.75965 	2.44850 	3.14475 	3.57255 	2.85750 	3.00195 	3.59495 	3.80520 	3.12335 	3.37235 	4.02550 	4.21910 	4.03785 	3.63235 	3.55560 	4.62785 	4.49085 	4.54345 	4.30520 	5.30445 	5.25165 	5.00405 	4.83240 	4.35935 
2.40590 	2.60480 	3.43130 	2.93735 	2.65675 	3.41870 	3.74935 	2.98270 	3.24965 	3.91845 	3.97365 	3.23305 	3.59540 	4.38755 	4.39010 	4.21710 	3.86320 	3.83965 	4.83030 	4.70680 	4.81430 	4.63035 	5.61230 	5.58460 	5.36065 	5.16535 	4.68840 
2.54205 	2.70260 	3.55100 	3.05475 	2.80965 	3.62890 	3.86005 	3.04135 	3.43540 	4.17530 	4.07200 	3.27370 	3.75410 	4.66335 	4.48605 	4.32070 	4.01945 	4.03940 	4.95505 	4.84395 	5.00625 	4.87270 	5.83585 	5.83460 	5.63470 	5.41740 	4.93770 
2.59705 	2.72710 	3.58920 	3.09455 	2.88870 	3.75550 	3.88690 	3.01660 	3.53940 	4.34645 	4.08185 	3.22790 	3.82960 	4.83050 	4.48755 	4.32900 	4.08070 	4.12890 	4.98115 	4.88130 	5.09725 	5.00815 	5.95215 	5.97810 	5.80200 	5.56440 	5.08355 
2.55610 	2.66640 	3.53245 	3.04300 	2.87890 	3.78265 	3.81630 	2.89595 	3.54555 	4.41580 	3.98880 	3.08270 	3.80655 	4.87080 	4.37910 	4.22680 	4.03070 	4.08760 	4.89175 	4.80170 	5.06965 	5.01710 	5.94240 	5.99565 	5.84225 	5.58615 	5.10650 
2.41085 	2.51485 	3.37435 	2.89370 	2.77235 	3.70090 	3.64195 	2.67500 	3.44535 	4.37305 	3.78610 	2.83335 	3.67680 	4.77380 	4.15295 	4.00625 	3.86105 	3.90440 	4.67760 	4.59590 	4.91325 	4.88780 	5.79565 	5.87545 	5.74255 	5.47025 	4.99480 
2.16280 	2.27525 	3.11840 	2.65030 	2.57100 	3.51105 	3.36745 	2.35990 	3.24080 	4.21625 	3.47715 	2.48600 	3.44185 	4.53905 	3.81140 	3.67035 	3.57430 	3.58035 	4.33980 	4.26500 	4.62890 	4.61960 	5.51140 	5.61645 	5.50090 	5.21485 	4.74695 
1.82410 	1.96035 	2.77900 	2.32735 	2.28755 	3.22415 	3.00770 	1.96815 	2.94505 	3.95305 	3.07700 	2.05830 	3.11400 	4.17730 	3.36870 	3.23395 	3.18515 	3.13005 	3.89130 	3.82225 	4.22950 	4.22460 	5.10165 	5.23005 	5.12795 	4.83045 	4.37345 
1.41670 	1.59160 	2.38010 	1.94900 	1.94435 	2.86085 	2.58735 	1.52695 	2.58105 	3.60010 	2.61060 	1.57820 	2.71565 	3.70975 	2.84925 	2.72240 	2.71935 	2.58000 	3.35605 	3.29195 	3.73935 	3.72620 	4.58960 	4.73910 	4.64645 	4.33910 	3.89585 
0.96905 	1.19580 	1.95195 	1.54545 	1.56985 	2.44805 	2.13730 	1.06970 	2.17805 	3.18050 	2.10970 	1.07965 	2.27520 	3.16520 	2.28495 	2.16855 	2.21030 	1.96520 	2.76560 	2.70600 	3.19085 	3.15650 	4.00670 	4.17480 	4.08805 	3.77145 	3.34405 
0.51175 	0.80115 	1.52610 	1.14830 	1.19395 	2.01465 	1.69020 	0.63070 	1.76650 	2.72010 	1.60790 	0.59815 	1.82305 	2.57575 	1.70980 	1.60740 	1.69350 	1.32365 	2.15440 	2.09930 	2.61945 	2.55135 	3.38805 	3.57245 	3.48895 	3.16220 	2.75185 
0.07320 	0.43250 	1.13130 	0.78560 	0.84310 	1.58720 	1.27540 	0.24055 	1.37350 	2.24360 	1.13585 	0.16500 	1.38670 	1.97255 	1.15545 	1.07170 	1.20205 	0.69110 	1.55510 	1.50485 	2.05905 	1.94560 	2.76760 	2.96590 	2.88455 	2.54560 	2.15260 
-0.32405 	0.10885 	0.78935 	0.47855 	0.53755 	1.18685 	0.91565 	-0.07800 	1.01915 	1.77180 	0.71755 	-0.19580 	0.98765 	1.38245 	0.64745 	0.58755 	0.76245 	0.09715 	0.99435 	0.94960 	1.53765 	1.36890 	2.17385 	2.38415 	2.30540 	1.95115 	1.57510 
-0.66490 	-0.15890 	0.51360 	0.23950 	0.28925 	0.82735 	0.62485 	-0.31140 	0.71500 	1.31980 	0.36810 	-0.47005 	0.63940 	0.82575 	0.20280 	0.17250 	0.39210 	-0.43715 	0.49100 	0.45255 	1.07480 	0.84350 	1.62795 	1.84830 	1.77455 	1.40100 	1.04130 
-0.94210 	-0.36700 	0.30890 	0.07205 	0.10160 	0.51505 	0.40820 	-0.45595 	0.46450 	0.89715 	0.09390 	-0.65325 	0.34795 	0.31595 	-0.17000 	-0.16490 	0.09965 	-0.89970 	0.05530 	0.02395 	0.68175 	0.38330 	1.14240 	1.37155 	1.30655 	0.90960 	0.56545 
-1.15475 	-0.51800 	0.17295 	-0.02735 	-0.02840 	0.25035 	0.26335 	-0.51595 	0.26455 	0.50815 	-0.10630 	-0.74910 	0.11290 	-0.13935 	-0.46990 	-0.42385 	-0.11445 	-1.28565 	-0.30980 	-0.33355 	0.36165 	-0.00520 	0.72250 	0.95955 	0.90845 	0.48405 	0.15485 
-1.30685 	-0.61845 	0.09800 	-0.06775 	-0.10910 	0.02900 	0.18255 	-0.50200 	0.10755 	0.15370 	-0.23960 	-0.76800 	-0.07075 	-0.53720 	-0.70180 	-0.60975 	-0.25595 	-1.59600 	-0.60725 	-0.62295 	0.11170 	-0.32160 	0.36770 	0.61230 	0.58115 	0.12555 	-0.18865 
-1.40545 	-0.67710 	0.07305 	-0.06125 	-0.15125 	-0.15590 	0.15400 	-0.42855 	-0.01660 	-0.16775 	-0.31695 	-0.72445 	-0.21085 	-0.87780 	-0.87450 	-0.73225 	-0.33465 	-1.83545 	-0.84395 	-0.85130 	-0.07520 	-0.56970 	0.07330 	0.32565 	0.32130 	-0.16900 	-0.46725 
-1.45920 	-0.70360 	0.08535 	-0.02180 	-0.16685 	-0.31185 	0.16425 	-0.31245 	-0.11865 	-0.45875 	-0.35145 	-0.63560 	-0.31645 	-1.16320 	-0.99890 	-0.80360 	-0.36280 	-2.01050 	-1.02925 	-1.02835 	-0.20870 	-0.75650 	-0.16800 	0.09295 	0.12255 	-0.40530 	-0.68575 
-1.47775 	-0.70725 	0.12180 	0.03675 	-0.16760 	-0.44635 	0.19925 	-0.17115 	-0.20885 	-0.72205 	-0.35695 	-0.51915 	-0.39705 	-1.39695 	-1.08730 	-0.83710 	-0.35375 	-2.12865 	-1.17360 	-1.16455 	-0.29970 	-0.89045 	-0.36495 	-0.09400 	-0.02310 	-0.59085 	-0.85065 
-1.47060 	-0.69680 	0.16985 	0.10100 	-0.16410 	-0.56580 	0.24535 	-0.02160 	-0.29605 	-0.96015 	-0.34705 	-0.39260 	-0.46160 	-1.58370 	-1.15145 	-0.84595 	-0.32050 	-2.19710 	-1.28755 	-1.27085 	-0.35920 	-0.98070 	-0.52635 	-0.24360 	-0.12430 	-0.73345 	-0.96910 
-1.44680 	-0.67950 	0.21830 	0.15920 	-0.16515 	-0.67570 	0.29040 	0.12080 	-0.38685 	-1.17545 	-0.33380 	-0.27150 	-0.51795 	-1.72900 	-1.20240 	-0.84240 	-0.27505 	-2.22250 	-1.38105 	-1.35710 	-0.39765 	-1.03625 	-0.66080 	-0.36410 	-0.18990 	-0.84085 	-1.04810 
-1.41490 	-0.66150 	0.25800 	0.20190 	-0.17750 	-0.78010 	0.32435 	0.24335 	-0.48545 	-1.36990 	-0.32740 	-0.16895 	-0.57220 	-1.83895 	-1.24950 	-0.83685 	-0.22795 	-2.21035 	-1.46275 	-1.43210 	-0.42425 	-1.06535 	-0.77590 	-0.46300 	-0.22820 	-0.92015 	-1.09460 
-1.38175 	-0.64715 	0.28220 	0.22235 	-0.20505 	-0.88195 	0.34000 	0.33640 	-0.59295 	-1.54495 	-0.33515 	-0.09440 	-0.62865 	-1.91930 	-1.29970 	-0.83750 	-0.18755 	-2.16520 	-1.53955 	-1.50245 	-0.44670 	-1.07500 	-0.87785 	-0.54650 	-0.24660 	-0.97730 	-1.11430 
-1.35310 	-0.63935 	0.28690 	0.21685 	-0.24920 	-0.98265 	0.33300 	0.39425 	-0.70800 	-1.70120 	-0.36155 	-0.05380 	-0.68940 	-1.97490 	-1.35795 	-0.85010 	-0.16015 	-2.09060 	-1.61660 	-1.57330 	-0.47105 	-1.07110 	-0.97155 	-0.61980 	-0.25165 	-1.01745 	-1.11225 
-1.33275 	-0.63935 	0.27070 	0.18460 	-0.30910 	-1.08255 	0.30205 	0.41450 	-0.82775 	-1.83825 	-0.40805 	-0.04915 	-0.75500 	-2.00920 	-1.42655 	-0.87790 	-0.14995 	-1.98980 	-1.69715 	-1.64765 	-0.50145 	-1.05840 	-1.06050 	-0.68675 	-0.24885 	-1.04470 	-1.09255 
-1.32285 	-0.64745 	0.23460 	0.12725 	-0.38255 	-1.18060 	0.24855 	0.39835 	-0.94830 	-1.95490 	-0.47375 	-0.07940 	-0.82430 	-2.02445 	-1.50580 	-0.92185 	-0.15985 	-1.86595 	-1.78265 	-1.72675 	-0.54060 	-1.04055 	-1.14665 	-0.75010 	-0.24270 	-1.06255 	-1.05845 
-1.32430 	-0.66285 	0.18140 	0.04825 	-0.46610 	-1.27530 	0.17600 	0.34920 	-1.06560 	-2.05010 	-0.55555 	-0.14070 	-0.89510 	-2.02175 	-1.59430 	-0.98135 	-0.19110 	-1.72265 	-1.87315 	-1.81065 	-0.59000 	-1.02085 	-1.23120 	-0.81190 	-0.23675 	-1.07365 	-1.01260 
-1.33650 	-0.68450 	0.11530 	-0.04745 	-0.55600 	-1.36470 	0.08940 	0.27280 	-1.17580 	-2.12340 	-0.64885 	-0.22735 	-0.96435 	-2.00170 	-1.68915 	-1.05425 	-0.24380 	-1.56425 	-1.96745 	-1.89820 	-0.64985 	-1.00145 	-1.31440 	-0.87340 	-0.23380 	-1.08030 	-0.95765 
-1.35810 	-0.71125 	0.04130 	-0.15435 	-0.64850 	-1.44715 	-0.00545 	0.17565 	-1.27560 	-2.17530 	-0.74825 	-0.33270 	-1.02895 	-1.96480 	-1.78685 	-1.13755 	-0.31705 	-1.39515 	-2.06380 	-1.98785 	-0.71965 	-0.98425 	-1.39615 	-0.93540 	-0.23605 	-1.08460 	-0.89615 
-1.38725 	-0.74200 	-0.03560 	-0.26675 	-0.73975 	-1.52100 	-0.10250 	0.06490 	-1.36230 	-2.20705 	-0.84810 	-0.44975 	-1.08625 	-1.91160 	-1.88380 	-1.22790 	-0.40870 	-1.21990 	-2.16015 	-2.07765 	-0.79845 	-0.97030 	-1.47620 	-0.99875 	-0.24525 	-1.08870 	-0.83140 
-1.42165 	-0.77600 	-0.11065 	-0.37950 	-0.82620 	-1.58500 	-0.19640 	-0.05300 	-1.43410 	-2.22055 	-0.94355 	-0.57220 	-1.13470 	-1.84320 	-1.97640 	-1.32225 	-0.51620 	-1.04270 	-2.25455 	-2.16605 	-0.88530 	-0.96060 	-1.55465 	-1.06410 	-0.26265 	-1.09470 	-0.76690 
-1.45895 	-0.81290 	-0.17990 	-0.48805 	-0.90515 	-1.63850 	-0.28265 	-0.17260 	-1.49005 	-2.21825 	-1.03050 	-0.69500 	-1.17425 	-1.76100 	-2.06210 	-1.41775 	-0.63645 	-0.86735 	-2.34550 	-2.25175 	-0.97895 	-0.95590 	-1.63160 	-1.13220 	-0.28955 	-1.10505 	-0.70660 
-1.49705 	-0.85235 	-0.24045 	-0.58905 	-0.97430 	-1.68140 	-0.35825 	-0.28975 	-1.53010 	-2.20270 	-1.10635 	-0.81455 	-1.20605 	-1.66685 	-2.13910 	-1.51230 	-0.76635 	-0.69710 	-2.43205 	-2.33400 	-1.07855 	-0.95690 	-1.70765 	-1.20360 	-0.32660 	-1.12200 	-0.65425 
-1.53355 	-0.89405 	-0.29055 	-0.68010 	-1.03260 	-1.71440 	-0.42130 	-0.40190 	-1.55500 	-2.17695 	-1.16980 	-0.92870 	-1.23230 	-1.56350 	-2.20640 	-1.60455 	-0.90295 	-0.53510 	-2.51365 	-2.41240 	-1.18285 	-0.96425 	-1.78325 	-1.27875 	-0.37415 	-1.14740 	-0.61310 
-1.56660 	-0.93765 	-0.32940 	-0.75975 	-1.07955 	-1.73810 	-0.47125 	-0.50775 	-1.56605 	-2.14360 	-1.22085 	-1.03660 	-1.25595 	-1.45425 	-2.26420 	-1.69380 	-1.04390 	-0.38415 	-2.59010 	-2.48695 	-1.29110 	-0.97865 	-1.85905 	-1.35790 	-0.43185 	-1.18265 	-0.58555 
-1.59425 	-0.98210 	-0.35685 	-0.82745 	-1.11500 	-1.75285 	-0.50860 	-0.60700 	-1.56485 	-2.10460 	-1.26070 	-1.13855 	-1.28030 	-1.34320 	-2.31310 	-1.78010 	-1.18750 	-0.24750 	-2.66170 	-2.55805 	-1.40270 	-1.00075 	-1.93555 	-1.44100 	-0.49910 	-1.22865 	-0.57315 
-1.61495 	-1.02595 	-0.37355 	-0.88275 	-1.13880 	-1.75820 	-0.53460 	-0.70010 	-1.55290 	-2.06095 	-1.29105 	-1.23535 	-1.30840 	-1.23445 	-2.35440 	-1.86375 	-1.33305 	-0.12815 	-2.72905 	-2.62635 	-1.51730 	-1.03125 	-2.01325 	-1.52795 	-0.57485 	-1.28575 	-0.57670 
-1.62710 	-1.06690 	-0.38015 	-0.92540 	-1.15025 	-1.75275 	-0.55080 	-0.78765 	-1.53145 	-2.01240 	-1.31415 	-1.32810 	-1.34255 	-1.13245 	-2.38970 	-1.94560 	-1.47990 	-0.02900 	-2.79275 	-2.69245 	-1.63455 	-1.07055 	-2.09265 	-1.61840 	-0.65800 	-1.35355 	-0.59610 
-1.62935 	-1.10215 	-0.37760 	-0.95545 	-1.14855 	-1.73480 	-0.55925 	-0.87040 	-1.50115 	-1.95810 	-1.33270 	-1.41790 	-1.38415 	-1.04115 	-2.42050 	-2.02605 	-1.62775 	0.04720 	-2.85340 	-2.75700 	-1.75415 	-1.11890 	-2.17380 	-1.71200 	-0.74705 	-1.43150 	-0.63060 
-1.62065 	-1.12850 	-0.36700 	-0.97320 	-1.13375 	-1.70295 	-0.56220 	-0.94910 	-1.46305 	-1.89710 	-1.34925 	-1.50585 	-1.43360 	-0.96425 	-2.44850 	-2.10590 	-1.77585 	0.09800 	-2.91180 	-2.82055 	-1.87560 	-1.17610 	-2.25685 	-1.80835 	-0.84075 	-1.51860 	-0.67895 
-1.60040 	-1.14315 	-0.35000 	-0.97985 	-1.10680 	-1.65680 	-0.56210 	-1.02485 	-1.41845 	-1.82920 	-1.36660 	-1.59300 	-1.49075 	-0.90500 	-2.47525 	-2.18560 	-1.92360 	0.12130 	-2.96870 	-2.88360 	-1.99835 	-1.24190 	-2.34185 	-1.90695 	-0.93800 	-1.61365 	-0.73985 
-1.56885 	-1.14375 	-0.32850 	-0.97745 	-1.06990 	-1.59760 	-0.56200 	-1.09885 	-1.36945 	-1.75500 	-1.38775 	-1.68075 	-1.55505 	-0.86605 	-2.50260 	-2.26570 	-2.07005 	0.11555 	-3.02495 	-2.94695 	-2.12155 	-1.31605 	-2.42870 	-2.00750 	-1.03775 	-1.71545 	-0.81145 
-1.52665 	-1.12885 	-0.30485 	-0.96850 	-1.02635 	-1.52765 	-0.56490 	-1.17270 	-1.31840 	-1.67580 	-1.41560 	-1.77000 	-1.62565 	-0.84865 	-2.53215 	-2.34670 	-2.21460 	0.07990 	-3.08150 	-3.01105 	-2.24435 	-1.39780 	-2.51720 	-2.10960 	-1.13940 	-1.82270 	-0.89210 
-1.47470 	-1.09765 	-0.28100 	-0.95565 	-0.97940 	-1.45010 	-0.57330 	-1.24755 	-1.26740 	-1.59300 	-1.45235 	-1.86165 	-1.70135 	-0.85305 	-2.56520 	-2.42885 	-2.35640 	0.01505 	-3.13860 	-3.07620 	-2.36555 	-1.48625 	-2.60690 	-2.21260 	-1.24220 	-1.93395 	-0.97960 
-1.41400 	-1.05030 	-0.25865 	-0.94115 	-0.93175 	-1.36810 	-0.58905 	-1.32415 	-1.21770 	-1.50800 	-1.49945 	-1.95605 	-1.78065 	-0.87785 	-2.60225 	-2.51155 	-2.49440 	-0.07640 	-3.19635 	-3.14205 	-2.48390 	-1.57950 	-2.69675 	-2.31560 	-1.34505 	-2.04715 	-1.07185 
-1.34545 	-0.98745 	-0.23865 	-0.92640 	-0.88530 	-1.28440 	-0.61290 	-1.40225 	-1.16940 	-1.42115 	-1.55720 	-2.05250 	-1.86140 	-0.92055 	-2.64320 	-2.59385 	-2.62710 	-0.18930 	-3.25385 	-3.20770 	-2.59745 	-1.67510 	-2.78505 	-2.41690 	-1.44665 	-2.16005 	-1.16605 
-1.26985 	-0.91080 	-0.22120 	-0.91205 	-0.84070 	-1.20090 	-0.64465 	-1.48075 	-1.12180 	-1.33275 	-1.62480 	-2.14950 	-1.94110 	-0.97780 	-2.68685 	-2.67385 	-2.75230 	-0.31625 	-3.30965 	-3.27135 	-2.70420 	-1.76980 	-2.86970 	-2.51450 	-1.54510 	-2.27000 	-1.25945 
-1.18805 	-0.82295 	-0.20650 	-0.89825 	-0.79810 	-1.11900 	-0.68325 	-1.55795 	-1.07355 	-1.24295 	-1.70080 	-2.24475 	-2.01695 	-1.04590 	-2.73175 	-2.74940 	-2.86800 	-0.44790 	-3.36185 	-3.33115 	-2.80195 	-1.85990 	-2.94830 	-2.60600 	-1.63820 	-2.37430 	-1.34935 
-1.10130 	-0.72760 	-0.19460 	-0.88520 	-0.75740 	-1.03980 	-0.72750 	-1.63200 	-1.02400 	-1.15250 	-1.78320 	-2.33575 	-2.08625 	-1.12085 	-2.77585 	-2.81810 	-2.97165 	-0.57470 	-3.40845 	-3.38480 	-2.88850 	-1.94170 	-3.01845 	-2.68910 	-1.72380 	-2.47035 	-1.43320 
-1.01145 	-0.62940 	-0.18595 	-0.87315 	-0.71915 	-0.96435 	-0.77625 	-1.70095 	-0.97350 	-1.06265 	-1.87010 	-2.41970 	-2.14690 	-1.19920 	-2.81735 	-2.87785 	-3.06125 	-0.68795 	-3.44760 	-3.43045 	-2.96205 	-2.01170 	-3.07820 	-2.76160 	-1.79985 	-2.55585 	-1.50880 
-0.92090 	-0.53390 	-0.18170 	-0.86310 	-0.68445 	-0.89410 	-0.82875 	-1.76375 	-0.92380 	-0.97570 	-1.95995 	-2.49435 	-2.19715 	-1.27790 	-2.85480 	-2.92710 	-3.13500 	-0.78160 	-3.47795 	-3.46655 	-3.02100 	-2.06740 	-3.12600 	-2.82175 	-1.86490 	-2.62910 	-1.57460 
-0.83270 	-0.44715 	-0.18360 	-0.85665 	-0.65560 	-0.83090 	-0.88490 	-1.81965 	-0.87810 	-0.89450 	-2.05150 	-2.55805 	-2.23635 	-1.35475 	-2.88725 	-2.96490 	-3.19155 	-0.85275 	-3.49865 	-3.49220 	-3.06465 	-2.10715 	-3.16095 	-2.86850 	-1.91805 	-2.68895 	-1.62960 
-0.75030 	-0.37530 	-0.19405 	-0.85585 	-0.63550 	-0.77720 	-0.94540 	-1.86885 	-0.84010 	-0.82230 	-2.14425 	-2.61000 	-2.26450 	-1.42830 	-2.91425 	-2.99100 	-3.23010 	-0.90165 	-3.50940 	-3.50700 	-3.09270 	-2.13080 	-3.18300 	-2.90140 	-1.95915 	-2.73510 	-1.67360 
-0.67740 	-0.32375 	-0.21585 	-0.86320 	-0.62780 	-0.73550 	-1.01130 	-1.91235 	-0.81375 	-0.76215 	-2.23815 	-2.65055 	-2.28270 	-1.49790 	-2.93600 	-3.00590 	-3.25050 	-0.93130 	-3.51055 	-3.51125 	-3.10540 	-2.13935 	-3.19255 	-2.92070 	-1.98885 	-2.76790 	-1.70725 
-0.61725 	-0.29700 	-0.25170 	-0.88155 	-0.63625 	-0.70845 	-1.08430 	-1.95190 	-0.80250 	-0.71675 	-2.33355 	-2.68095 	-2.29290 	-1.56365 	-2.95330 	-3.01060 	-3.25320 	-0.94595 	-3.50285 	-3.50555 	-3.10380 	-2.13480 	-3.19085 	-2.92715 	-2.00805 	-2.78815 	-1.73160 
-0.57245 	-0.29795 	-0.30425 	-0.91350 	-0.66430 	-0.69805 	-1.16605 	-1.98955 	-0.80950 	-0.68830 	-2.43115 	-2.70340 	-2.29770 	-1.62585 	-2.96715 	-3.00660 	-3.23960 	-0.95030 	-3.48735 	-3.49095 	-3.08940 	-2.11990 	-3.17915 	-2.92200 	-2.01820 	-2.79695 	-1.74825 
-0.54510 	-0.32795 	-0.37580 	-0.96145 	-0.71480 	-0.70580 	-1.25855 	-2.02805 	-0.83700 	-0.67865 	-2.53220 	-2.72095 	-2.30000 	-1.68470 	-2.97900 	-2.99605 	-3.21160 	-0.94835 	-3.46525 	-3.46880 	-3.06385 	-2.09745 	-3.15905 	-2.90650 	-2.02050 	-2.79565 	-1.75850 
-0.53655 	-0.38670 	-0.46805 	-1.02750 	-0.78935 	-0.73250 	-1.36340 	-2.07025 	-0.88685 	-0.68905 	-2.63765 	-2.73710 	-2.30295 	-1.74020 	-2.99040 	-2.98095 	-3.17185 	-0.94265 	-3.43815 	-3.44035 	-3.02905 	-2.06975 	-3.13205 	-2.88200 	-2.01610 	-2.78540 	-1.76350 
-0.54750 	-0.47255 	-0.58205 	-1.11280 	-0.88825 	-0.77790 	-1.48200 	-2.11875 	-0.95970 	-0.72055 	-2.74890 	-2.75520 	-2.30925 	-1.79165 	-3.00285 	-2.96370 	-3.12330 	-0.93410 	-3.40740 	-3.40715 	-2.98690 	-2.03880 	-3.09950 	-2.84950 	-2.00580 	-2.76710 	-1.76400 
-0.57775 	-0.58230 	-0.71805 	-1.21780 	-1.01070 	-0.84115 	-1.61525 	-2.17590 	-1.05545 	-0.77355 	-2.86680 	-2.77830 	-2.32120 	-1.83825 	-3.01765 	-2.94640 	-3.06905 	-0.92270 	-3.37430 	-3.37065 	-2.93915 	-2.00550 	-3.06215 	-2.80985 	-1.99015 	-2.74155 	-1.76050 
-0.62660 	-0.71210 	-0.87540 	-1.34220 	-1.15485 	-0.92065 	-1.76330 	-2.24340 	-1.17290 	-0.84780 	-2.99200 	-2.80865 	-2.34045 	-1.87900 	-3.03595 	-2.93105 	-3.01230 	-0.90790 	-3.34000 	-3.33210 	-2.88745 	-1.97035 	-3.02095 	-2.76375 	-1.96965 	-2.70950 	-1.75315 
-0.69235 	-0.85755 	-1.05285 	-1.48510 	-1.31830 	-1.01455 	-1.92600 	-2.32245 	-1.31025 	-0.94220 	-3.12475 	-2.84780 	-2.36785 	-1.91330 	-3.05855 	-2.91935 	-2.95600 	-0.88940 	-3.30535 	-3.29285 	-2.83330 	-1.93295 	-2.97630 	-2.71170 	-1.94470 	-2.67165 	-1.74205 
-0.77300 	-1.01400 	-1.24850 	-1.64505 	-1.49835 	-1.12080 	-2.10250 	-2.41395 	-1.46550 	-1.05510 	-3.26495 	-2.89685 	-2.40370 	-1.94095 	-3.08610 	-2.91300 	-2.90290 	-0.86730 	-3.27130 	-3.25420 	-2.77830 	-1.89295 	-2.92865 	-2.65455 	-1.91590 	-2.62860 	-1.72755 
-0.86620 	-1.17745 	-1.45995 	-1.82035 	-1.69220 	-1.23765 	-2.29180 	-2.51820 	-1.63625 	-1.18450 	-3.41240 	-2.95630 	-2.44785 	-1.96235 	-3.11915 	-2.91340 	-2.85565 	-0.84215 	-3.23860 	-3.21750 	-2.72410 	-1.84960 	-2.87845 	-2.59300 	-1.88425 	-2.58130 	-1.71000 
-0.96950 	-1.34425 	-1.68455 	-2.00915 	-1.89705 	-1.36305 	-2.49250 	-2.63515 	-1.82030 	-1.32830 	-3.56645 	-3.02630 	-2.50010 	-1.97860 	-3.15805 	-2.92185 	-2.81630 	-0.81465 	-3.20825 	-3.18405 	-2.67220 	-1.80260 	-2.82620 	-2.52815 	-1.85070 	-2.53055 	-1.69025 
-1.08065 	-1.51170 	-1.91965 	-2.20930 	-2.11000 	-1.49540 	-2.70320 	-2.76445 	-2.01515 	-1.48515 	-3.72670 	-3.10690 	-2.56055 	-1.99160 	-3.20335 	-2.93960 	-2.78715 	-0.78545 	-3.18125 	-3.15540 	-2.62420 	-1.75205 	-2.77260 	-2.46145 	-1.81645 	-2.47755 	-1.66930 
-1.19770 	-1.67815 	-2.16235 	-2.41865 	-2.32805 	-1.63340 	-2.92230 	-2.90555 	-2.21820 	-1.65375 	-3.89245 	-3.19795 	-2.62975 	-2.00365 	-3.25540 	-2.96760 	-2.76995 	-0.75505 	-3.15850 	-3.13270 	-2.58170 	-1.69840 	-2.71845 	-2.39415 	-1.78285 	-2.42340 	-1.64825 
-1.31905 	-1.84280 	-2.41010 	-2.63505 	-2.54840 	-1.77600 	-3.14845 	-3.05775 	-2.42635 	-1.83335 	-4.06315 	-3.29920 	-2.70860 	-2.01735 	-3.31465 	-3.00670 	-2.76650 	-0.72360 	-3.14110 	-3.11720 	-2.54605 	-1.64265 	-2.66440 	-2.32785 	-1.75110 	-2.36925 	-1.62835 
-1.44345 	-2.00595 	-2.66060 	-2.85655 	-2.76845 	-1.92220 	-3.38015 	-3.22040 	-2.63630 	-2.02270 	-4.23825 	-3.41070 	-2.79795 	-2.03525 	-3.38130 	-3.05750 	-2.77815 	-0.69145 	-3.13005 	-3.10985 	-2.51850 	-1.58610 	-2.61125 	-2.26380 	-1.72225 	-2.31610 	-1.61070 
-1.56960 	-2.16825 	-2.91165 	-3.08130 	-2.98575 	-2.07070 	-3.61610 	-3.39310 	-2.84475 	-2.21970 	-4.41720 	-3.53235 	-2.89840 	-2.05945 	-3.45560 	-3.12050 	-2.80590 	-0.65940 	-3.12600 	-3.11130 	-2.49990 	-1.53030 	-2.55955 	-2.20315 	-1.69730 	-2.26500 	-1.59625 
-1.69650 	-2.33095 	-3.16140 	-3.30765 	-3.19765 	-2.21995 	-3.85500 	-3.57535 	-3.04895 	-2.42115 	-4.59945 	-3.66440 	-3.00990 	-2.09165 	-3.53735 	-3.19605 	-2.85030 	-0.62895 	-3.12955 	-3.12190 	-2.49080 	-1.47700 	-2.50970 	-2.14690 	-1.67705 	-2.21650 	-1.58570 
-1.82295 	-2.49500 	-3.40805 	-3.53410 	-3.40195 	-2.36780 	-4.09540 	-3.76695 	-3.24685 	-2.62325 	-4.78440 	-3.80670 	-3.13190 	-2.13295 	-3.62635 	-3.28385 	-2.91130 	-0.60225 	-3.14070 	-3.14155 	-2.49140 	-1.42830 	-2.46190 	-2.09550 	-1.66190 	-2.17090 	-1.57920 
-1.94760 	-2.66120 	-3.65000 	-3.75920 	-3.59640 	-2.51195 	-4.33565 	-3.96735 	-3.43695 	-2.82155 	-4.97125 	-3.95940 	-3.26305 	-2.18400 	-3.72180 	-3.38350 	-2.98830 	-0.58215 	-3.15920 	-3.17000 	-2.50140 	-1.38595 	-2.41595 	-2.04895 	-1.65180 	-2.12800 	-1.57600 
-2.06900 	-2.82925 	-3.88540 	-3.98135 	-3.77860 	-2.64985 	-4.57375 	-4.17570 	-3.61815 	-3.01180 	-5.15865 	-4.12160 	-3.40115 	-2.24450 	-3.82250 	-3.49390 	-3.07975 	-0.57145 	-3.18420 	-3.20625 	-2.52000 	-1.35145 	-2.37115 	-2.00670 	-1.64600 	-2.08690 	-1.57480 
-2.18540 	-2.99810 	-4.11215 	-4.19855 	-3.94630 	-2.77855 	-4.80740 	-4.39030 	-3.78920 	-3.19000 	-5.34470 	-4.29185 	-3.54295 	-2.31300 	-3.92665 	-3.61305 	-3.18330 	-0.57230 	-3.21420 	-3.24895 	-2.54585 	-1.32555 	-2.32640 	-1.96750 	-1.64285 	-2.04605 	-1.57320 
-2.29505 	-3.16565 	-4.32795 	-4.40840 	-4.09735 	-2.89540 	-5.03370 	-4.60865 	-3.94880 	-3.35265 	-5.52720 	-4.46790 	-3.68485 	-2.38670 	-4.03195 	-3.73870 	-3.29595 	-0.58575 	-3.24735 	-3.29615 	-2.57725 	-1.30830 	-2.28030 	-1.92950 	-1.64035 	-2.00365 	-1.56835 
-2.39590 	-3.32890 	-4.53030 	-4.60825 	-4.22985 	-2.99805 	-5.24970 	-4.82760 	-4.09580 	-3.49650 	-5.70325 	-4.64665 	-3.82345 	-2.46180 	-4.13570 	-3.86765 	-3.41420 	-0.61175 	-3.28150 	-3.34575 	-2.61200 	-1.29925 	-2.23125 	-1.89065 	-1.63615 	-1.95760 	-1.55735 
-2.48600 	-3.48415 	-4.71680 	-4.79560 	-4.34280 	-3.08490 	-5.45245 	-5.04350 	-4.22935 	-3.61875 	-5.87010 	-4.82480 	-3.95600 	-2.53385 	-4.23500 	-3.99680 	-3.53440 	-0.64895 	-3.31445 	-3.39540 	-2.64790 	-1.29745 	-2.17785 	-1.84895 	-1.62835 	-1.90620 	-1.53750 
-2.56345 	-3.62720 	-4.88500 	-4.96790 	-4.43595 	-3.15505 	-5.63895 	-5.25270 	-4.34895 	-3.71670 	-6.02485 	-4.99870 	-4.08065 	-2.59835 	-4.32705 	-4.12295 	-3.65285 	-0.69550 	-3.34380 	-3.44260 	-2.68240 	-1.30190 	-2.11875 	-1.80230 	-1.61500 	-1.84790 	-1.50635 
-2.62630 	-3.75385 	-5.03285 	-5.12300 	-4.50975 	-3.20845 	-5.80660 	-5.45145 	-4.45470 	-3.78845 	-6.16480 	-5.16490 	-4.19630 	-2.65150 	-4.40890 	-4.24265 	-3.76560 	-0.74985 	-3.36730 	-3.48495 	-2.71305 	-1.31150 	-2.05275 	-1.74890 	-1.59445 	-1.78135 	-1.46200 
-2.67295 	-3.85975 	-5.15860 	-5.25905 	-4.56560 	-3.24545 	-5.95310 	-5.63640 	-4.54725 	-3.83315 	-6.28745 	-5.31990 	-4.30290 	-2.69110 	-4.47795 	-4.35255 	-3.86890 	-0.81120 	-3.38280 	-3.51985 	-2.73730 	-1.32540 	-1.97870 	-1.68730 	-1.56535 	-1.70565 	-1.40265 
-2.70185 	-3.94125 	-5.26090 	-5.37490 	-4.60525 	-3.26720 	-6.07670 	-5.80455 	-4.62750 	-3.85150 	-6.39065 	-5.46070 	-4.40110 	-2.71760 	-4.53180 	-4.44955 	-3.95950 	-0.88000 	-3.38825 	-3.54510 	-2.75280 	-1.34275 	-1.89585 	-1.61630 	-1.52670 	-1.62015 	-1.32720 
-2.71235 	-3.99570 	-5.33920 	-5.46980 	-4.63110 	-3.27575 	-6.17620 	-5.95350 	-4.69685 	-3.84640 	-6.47295 	-5.58450 	-4.49205 	-2.73375 	-4.56855 	-4.53075 	-4.03495 	-0.95815 	-3.38205 	-3.55875 	-2.75795 	-1.36295 	-1.80395 	-1.53555 	-1.47815 	-1.52490 	-1.23535 
-2.70435 	-4.02170 	-5.39365 	-5.54395 	-4.64580 	-3.27420 	-6.25130 	-6.08185 	-4.75710 	-3.82250 	-6.53345 	-5.68955 	-4.57745 	-2.74460 	-4.58695 	-4.59420 	-4.09425 	-1.04830 	-3.36330 	-3.55965 	-2.75195 	-1.38590 	-1.70315 	-1.44530 	-1.42015 	-1.42065 	-1.12770 
-2.67850 	-4.01935 	-5.42515 	-5.59850 	-4.65235 	-3.26630 	-6.30250 	-6.18900 	-4.80995 	-3.78565 	-6.57205 	-5.77495 	-4.65925 	-2.75610 	-4.58670 	-4.63880 	-4.13780 	-1.15350 	-3.33190 	-3.54775 	-2.73545 	-1.41185 	-1.59480 	-1.34715 	-1.35430 	-1.30870 	-1.00590 
-2.63665 	-3.99060 	-5.43555 	-5.63515 	-4.65385 	-3.25620 	-6.33125 	-6.27540 	-4.85685 	-3.74235 	-6.58950 	-5.84085 	-4.73910 	-2.77400 	-4.56830 	-4.66465 	-4.16765 	-1.27610 	-3.28865 	-3.52365 	-2.71000 	-1.44160 	-1.48060 	-1.24345 	-1.28320 	-1.19140 	-0.87265 
-2.58115 	-3.93855 	-5.42735 	-5.65680 	-4.65335 	-3.24830 	-6.33985 	-6.34220 	-4.89910 	-3.69885 	-6.58730 	-5.88840 	-4.81855 	-2.80280 	-4.53315 	-4.67290 	-4.18695 	-1.41770 	-3.23505 	-3.48915 	-2.67830 	-1.47610 	-1.36320 	-1.13720 	-1.21025 	-1.07130 	-0.73105 
-2.51490 	-3.86785 	-5.40365 	-5.66635 	-4.65370 	-3.24610 	-6.33115 	-6.39135 	-4.93750 	-3.66035 	-6.56740 	-5.91955 	-4.89865 	-2.84475 	-4.48300 	-4.66550 	-4.19955 	-1.57845 	-3.17305 	-3.44625 	-2.64360 	-1.51665 	-1.24545 	-1.03180 	-1.13905 	-0.95120 	-0.58435 
-2.44130 	-3.78405 	-5.36785 	-5.66720 	-4.65765 	-3.25205 	-6.30830 	-6.42505 	-4.97275 	-3.63065 	-6.53205 	-5.93685 	-4.97985 	-2.90000 	-4.42030 	-4.64505 	-4.20925 	-1.75755 	-3.10490 	-3.39730 	-2.60940 	-1.56415 	-1.13005 	-0.93050 	-1.07315 	-0.83340 	-0.43580 
-2.36395 	-3.69310 	-5.32350 	-5.66255 	-4.66745 	-3.26770 	-6.27455 	-6.44595 	-5.00565 	-3.61225 	-6.48370 	-5.94320 	-5.06220 	-2.96705 	-4.34740 	-4.61435 	-4.21960 	-1.95330 	-3.03305 	-3.34460 	-2.57895 	-1.61915 	-1.01975 	-0.83635 	-1.01540 	-0.72035 	-0.28820 
-2.28640 	-3.60115 	-5.27400 	-5.65550 	-4.68535 	-3.29370 	-6.23305 	-6.45640 	-5.03715 	-3.60635 	-6.42470 	-5.94140 	-5.14550 	-3.04395 	-4.26695 	-4.57625 	-4.23370 	-2.16375 	-2.95955 	-3.29035 	-2.55515 	-1.68190 	-0.91695 	-0.75175 	-0.96790 	-0.61380 	-0.14430 
-2.21210 	-3.51415 	-5.22255 	-5.64875 	-4.71330 	-3.33005 	-6.18655 	-6.45855 	-5.06880 	-3.61355 	-6.35705 	-5.93395 	-5.22885 	-3.12910 	-4.18130 	-4.53330 	-4.25390 	-2.38645 	-2.88650 	-3.23630 	-2.54060 	-1.75245 	-0.82380 	-0.67875 	-0.93205 	-0.51545 	-0.00650 
-2.14425 	-3.43725 	-5.17190 	-5.64445 	-4.75295 	-3.37655 	-6.13710 	-6.45405 	-5.10240 	-3.63425 	-6.28225 	-5.92250 	-5.31140 	-3.22210 	-4.09235 	-4.48770 	-4.28185 	-2.61860 	-2.81540 	-3.18395 	-2.53720 	-1.83020 	-0.74185 	-0.61870 	-0.90825 	-0.42655 	0.12295 
-2.08560 	-3.37440 	-5.12390 	-5.64415 	-4.80545 	-3.43285 	-6.08585 	-6.44340 	-5.13980 	-3.66850 	-6.20115 	-5.90775 	-5.39170 	-3.32360 	-4.00140 	-4.44100 	-4.31865 	-2.85675 	-2.74725 	-3.13440 	-2.54640 	-1.91435 	-0.67235 	-0.57225 	-0.89605 	-0.34805 	0.24220 
-2.03785 	-3.32795 	-5.07965 	-5.64865 	-4.87125 	-3.49855 	-6.03300 	-6.42685 	-5.18285 	-3.71590 	-6.11390 	-5.88950 	-5.46820 	-3.43510 	-3.90910 	-4.39400 	-4.36435 	-3.09630 	-2.68255 	-3.08800 	-2.56860 	-2.00340 	-0.61555 	-0.53925 	-0.89415 	-0.28005 	0.35010 
-2.00215 	-3.29870 	-5.03940 	-5.65780 	-4.94990 	-3.57320 	-5.97790 	-6.40360 	-5.23265 	-3.77545 	-6.01970 	-5.86650 	-5.53910 	-3.55810 	-3.81530 	-4.34640 	-4.41790 	-3.33170 	-2.62085 	-3.04440 	-2.60310 	-2.09555 	-0.57100 	-0.51865 	-0.90065 	-0.22210 	0.44625 
-1.97830 	-3.28540 	-5.00210 	-5.67065 	-5.03950 	-3.65605 	-5.91895 	-6.37255 	-5.28895 	-3.84540 	-5.91735 	-5.83710 	-5.60210 	-3.69350 	-3.71880 	-4.29725 	-4.47715 	-3.55710 	-2.56075 	-3.00240 	-2.64785 	-2.18840 	-0.53705 	-0.50840 	-0.91300 	-0.17270 	0.53115 
-1.96560 	-3.28510 	-4.96610 	-5.68505 	-5.13675 	-3.74615 	-5.85395 	-6.33240 	-5.34990 	-3.92335 	-5.80495 	-5.79910 	-5.65465 	-3.84070 	-3.61780 	-4.24450 	-4.53890 	-3.76705 	-2.50035 	-2.95990 	-2.69965 	-2.27965 	-0.51160 	-0.50590 	-0.92825 	-0.12985 	0.60630 
-1.96235 	-3.29355 	-4.92880 	-5.69795 	-5.23695 	-3.84170 	-5.78020 	-6.28160 	-5.41155 	-4.00665 	-5.68040 	-5.75015 	-5.69380 	-3.99720 	-3.50995 	-4.18550 	-4.59925 	-3.95715 	-2.43705 	-2.91440 	-2.75420 	-2.36655 	-0.49155 	-0.50785 	-0.94390 	-0.09105 	0.67360 
-1.96645 	-3.30560 	-4.88720 	-5.70570 	-5.33405 	-3.94010 	-5.69490 	-6.21870 	-5.46890 	-4.09230 	-5.54155 	-5.68780 	-5.71665 	-4.15860 	-3.39300 	-4.11760 	-4.65405 	-4.12425 	-2.36830 	-2.86305 	-2.80695 	-2.44670 	-0.47390 	-0.51100 	-0.95720 	-0.05360 	0.73555 
-1.97570 	-3.31590 	-4.83850 	-5.70460 	-5.42205 	-4.03825 	-5.59570 	-6.14255 	-5.51615 	-4.17730 	-5.38705 	-5.61050 	-5.72095 	-4.31910 	-3.26495 	-4.03850 	-4.69960 	-4.26670 	-2.29185 	-2.80335 	-2.85355 	-2.51795 	-0.45565 	-0.51240 	-0.96620 	-0.01530 	0.79430 
-1.98820 	-3.31975 	-4.78010 	-5.69145 	-5.49570 	-4.13265 	-5.48080 	-6.05285 	-5.54840 	-4.25890 	-5.21595 	-5.51735 	-5.70540 	-4.47200 	-3.12465 	-3.94685 	-4.73285 	-4.38385 	-2.20635 	-2.73365 	-2.89020 	-2.57845 	-0.43465 	-0.50995 	-0.96980 	0.02535 	0.85140 
-2.00230 	-3.31295 	-4.71005 	-5.66395 	-5.55130 	-4.22030 	-5.34925 	-5.94995 	-5.56210 	-4.33490 	-5.02820 	-5.40865 	-5.66975 	-4.61090 	-2.97180 	-3.84205 	-4.75170 	-4.47560 	-2.11090 	-2.65285 	-2.91430 	-2.62690 	-0.40950 	-0.50240 	-0.96740 	0.06895 	0.90735 
-2.01645 	-3.29270 	-4.62710 	-5.62095 	-5.58705 	-4.29855 	-5.20075 	-5.83510 	-5.55540 	-4.40335 	-4.82450 	-5.28540 	-5.61470 	-4.73020 	-2.80680 	-3.72435 	-4.75465 	-4.54255 	-2.00570 	-2.56080 	-2.92410 	-2.66240 	-0.37930 	-0.48925 	-0.95925 	0.11520 	0.96190 
-2.02945 	-3.25710 	-4.53030 	-5.56190 	-5.60255 	-4.36575 	-5.03535 	-5.70950 	-5.52815 	-4.46335 	-4.60570 	-5.14900 	-5.54155 	-4.82595 	-2.63040 	-3.59450 	-4.74105 	-4.58525 	-1.89100 	-2.45760 	-2.91850 	-2.68445 	-0.34415 	-0.47070 	-0.94600 	0.16325 	1.01390 
-2.04000 	-3.20545 	-4.41890 	-5.48695 	-5.59865 	-4.42090 	-4.85325 	-5.57430 	-5.48115 	-4.51415 	-4.37290 	-5.00055 	-5.45200 	-4.89625 	-2.44350 	-3.45340 	-4.71050 	-4.60460 	-1.76750 	-2.34395 	-2.89730 	-2.69275 	-0.30405 	-0.44710 	-0.92855 	0.21195 	1.06220 
-2.04675 	-3.13805 	-4.29235 	-5.39605 	-5.57630 	-4.46385 	-4.65470 	-5.42975 	-5.41575 	-4.55540 	-4.12680 	-4.84095 	-5.34765 	-4.94100 	-2.24685 	-3.30170 	-4.66300 	-4.60150 	-1.63585 	-2.22020 	-2.86060 	-2.68725 	-0.25925 	-0.41890 	-0.90755 	0.26060 	1.10615 
-2.04845 	-3.05610 	-4.15020 	-5.28940 	-5.53655 	-4.49520 	-4.43970 	-5.27535 	-5.33365 	-4.58730 	-3.86785 	-4.66995 	-5.22995 	-4.96260 	-2.04110 	-3.13995 	-4.59875 	-4.57755 	-1.49635 	-2.08695 	-2.80865 	-2.66830 	-0.20970 	-0.38650 	-0.88335 	0.30880 	1.14565 
-2.04420 	-2.96185 	-3.99230 	-5.16695 	-5.48055 	-4.51595 	-4.20830 	-5.11020 	-5.23660 	-4.61065 	-3.59635 	-4.48695 	-5.10035 	-4.96500 	-1.82635 	-2.96805 	-4.51815 	-4.53485 	-1.34935 	-1.94450 	-2.74220 	-2.63665 	-0.15535 	-0.34985 	-0.85595 	0.35670 	1.18130 
-2.03345 	-2.85825 	-3.81875 	-5.02905 	-5.40980 	-4.52790 	-3.96080 	-4.93285 	-5.12650 	-4.62675 	-3.31255 	-4.29090 	-4.96050 	-4.95325 	-1.60290 	-2.78630 	-4.42205 	-4.47645 	-1.19520 	-1.79345 	-2.66220 	-2.59400 	-0.09630 	-0.30910 	-0.82540 	0.40430 	1.21410 
-2.01655 	-2.74900 	-3.63025 	-4.87645 	-5.32585 	-4.53290 	-3.69750 	-4.74220 	-5.00575 	-4.63715 	-3.01675 	-4.08095 	-4.81205 	-4.93280 	-1.37100 	-2.59465 	-4.31195 	-4.40625 	-1.03425 	-1.63455 	-2.57010 	-2.54260 	-0.03270 	-0.26455 	-0.79185 	0.45160 	1.24440 
-1.99445 	-2.63805 	-3.42805 	-4.71025 	-5.23060 	-4.53310 	-3.41950 	-4.53775 	-4.87675 	-4.64340 	-2.70980 	-3.85660 	-4.65690 	-4.90845 	-1.13135 	-2.39350 	-4.18970 	-4.32910 	-0.86740 	-1.46890 	-2.46780 	-2.48545 	0.03475 	-0.21665 	-0.75580 	0.49820 	1.27210 
-1.96860 	-2.52945 	-3.21385 	-4.53205 	-5.12575 	-4.53015 	-3.12815 	-4.31965 	-4.74185 	-4.64640 	-2.39275 	-3.61800 	-4.49720 	-4.88405 	-0.88480 	-2.18370 	-4.05765 	-4.25000 	-0.69545 	-1.29785 	-2.35765 	-2.42580 	0.10525 	-0.16615 	-0.71795 	0.54330 	1.29660 
-1.94085 	-2.42630 	-2.98960 	-4.34350 	-5.01290 	-4.52490 	-2.82505 	-4.08860 	-4.60310 	-4.64595 	-2.06700 	-3.36600 	-4.33475 	-4.86205 	-0.63230 	-1.96620 	-3.91805 	-4.17360 	-0.51940 	-1.12280 	-2.24190 	-2.36695 	0.17775 	-0.11370 	-0.67915 	0.58620 	1.31690 
-1.91300 	-2.33115 	-2.75715 	-4.14630 	-4.89310 	-4.51730 	-2.51195 	-3.84585 	-4.46195 	-4.64100 	-1.73400 	-3.10205 	-4.17085 	-4.84320 	-0.37485 	-1.74200 	-3.77305 	-4.10360 	-0.34015 	-0.94490 	-2.12275 	-2.31155 	0.25155 	-0.05975 	-0.63985 	0.62620 	1.33215 
-1.88625 	-2.24485 	-2.51815 	-3.94175 	-4.76690 	-4.50620 	-2.19035 	-3.59270 	-4.31915 	-4.62920 	-1.39500 	-2.82775 	-4.00595 	-4.82655 	-0.11315 	-1.51200 	-3.62385 	-4.04165 	-0.15795 	-0.76485 	-2.00130 	-2.26115 	0.32625 	-0.00420 	-0.60015 	0.66305 	1.34190 
-1.86090 	-2.16650 	-2.27335 	-3.73070 	-4.63430 	-4.48950 	-1.86120 	-3.33015 	-4.17445 	-4.60750 	-1.05055 	-2.54430 	-3.83915 	-4.80935 	0.15285 	-1.27605 	-3.47030 	-3.98745 	0.02760 	-0.58230 	-1.87760 	-2.21580 	0.40235 	0.05410 	-0.55915 	0.69755 	1.34655 
-1.83630 	-2.09340 	-2.02280 	-3.51325 	-4.49460 	-4.46420 	-1.52450 	-3.05855 	-4.02680 	-4.57265 	-0.70035 	-2.25220 	-3.66845 	-4.78730 	0.42420 	-1.03325 	-3.31070 	-3.93810 	0.21795 	-0.39585 	-1.75005 	-2.17400 	0.48135 	0.11720 	-0.51495 	0.73140 	1.34750 
-1.81065 	-2.02110 	-1.76530 	-3.28885 	-4.34655 	-4.42710 	-1.17935 	-2.77745 	-3.87405 	-4.52170 	-0.34325 	-1.95095 	-3.49065 	-4.75535 	0.70280 	-0.78125 	-3.14220 	-3.88935 	0.41555 	-0.20310 	-1.61575 	-2.13230 	0.56570 	0.18800 	-0.46445 	0.76745 	1.34720 
-1.78175 	-1.94420 	-1.49925 	-3.05605 	-4.18880 	-4.37515 	-0.82415 	-2.48550 	-3.71365 	-4.45260 	0.02280 	-1.63920 	-3.30215 	-4.70885 	0.99140 	-0.51745 	-2.96120 	-3.83585 	0.62350 	-0.00100 	-1.47105 	-2.08645 	0.65840 	0.26980 	-0.40435 	0.80885 	1.34880 
-1.74695 	-1.85700 	-1.22260 	-2.81360 	-4.02000 	-4.30635 	-0.45725 	-2.18115 	-3.54265 	-4.36470 	0.39970 	-1.31540 	-3.09930 	-4.64370 	1.29245 	-0.23895 	-2.76415 	-3.77210 	0.84455 	0.21330 	-1.31245 	-2.03195 	0.76240 	0.36550 	-0.33120 	0.85895 	1.35565 
-1.70390 	-1.75420 	-0.93365 	-2.56015 	-3.83910 	-4.21960 	-0.07710 	-1.86290 	-3.35795 	-4.25845 	0.78915 	-0.97830 	-2.87895 	-4.55740 	1.60800 	0.05630 	-2.54815 	-3.69275 	1.08120 	0.44205 	-1.13735 	-1.96480 	0.87990 	0.47715 	-0.24265 	0.92035 	1.37035 
-1.65095 	-1.63165 	-0.63125 	-2.29485 	-3.64570 	-4.11500 	0.31695 	-1.52990 	-3.15720 	-4.13505 	1.19175 	-0.62750 	-2.63890 	-4.44860 	1.93880 	0.36925 	-2.31185 	-3.59365 	1.33435 	0.68610 	-0.94445 	-1.88235 	1.01215 	0.60560 	-0.13780 	0.99470 	1.39475 
-1.58725 	-1.48695 	-0.31525 	-2.01740 	-3.43945 	-3.99320 	0.72465 	-1.18200 	-2.93825 	-3.99595 	1.60710 	-0.26355 	-2.37835 	-4.31710 	2.28460 	0.69920 	-2.05525 	-3.47185 	1.60385 	0.94515 	-0.73400 	-1.78345 	1.15890 	0.75000 	-0.01725 	1.08205 	1.42915 
-1.51285 	-1.31905 	0.01395 	-1.72815 	-3.22045 	-3.85545 	1.14465 	-0.82010 	-2.70010 	-3.84225 	2.03345 	0.11170 	-2.09790 	-4.16365 	2.64365 	1.04415 	-1.78005 	-3.32585 	1.88795 	1.21730 	-0.50805 	-1.66860 	1.31860 	0.90825 	0.11700 	1.18085 	1.47245 
-1.42860 	-1.12895 	0.35465 	-1.42810 	-2.98895 	-3.70305 	1.57495 	-0.44575 	-2.44220 	-3.67480 	2.46835 	0.49570 	-1.79980 	-3.98970 	3.01330 	1.40080 	-1.48945 	-3.15595 	2.18400 	1.49970 	-0.27000 	-1.53940 	1.48865 	1.07705 	0.26175 	1.28835 	1.52230 
-1.33610 	-0.91925 	0.70495 	-1.11850 	-2.74525 	-3.53725 	2.01275 	-0.06110 	-2.16510 	-3.49410 	2.90850 	0.88515 	-1.48730 	-3.79740 	3.38995 	1.76505 	-1.18755 	-2.96395 	2.48835 	1.78875 	-0.02385 	-1.39845 	1.66550 	1.25235 	0.41310 	1.40080 	1.57530 
-1.23730 	-0.69370 	1.06210 	-0.80130 	-2.49005 	-3.35935 	2.45485 	0.33110 	-1.86985 	-3.30060 	3.35045 	1.27670 	-1.16415 	-3.58955 	3.77000 	2.13260 	-0.87855 	-2.75270 	2.79715 	2.08055 	0.22610 	-1.24820 	1.84545 	1.43005 	0.56720 	1.51420 	1.62815 
-1.13440 	-0.45715 	1.42325 	-0.47850 	-2.22400 	-3.17015 	2.89820 	0.72820 	-1.55840 	-3.09490 	3.79085 	1.66735 	-0.83420 	-3.36945 	4.14985 	2.49970 	-0.56635 	-2.52590 	3.10645 	2.37140 	0.47595 	-1.09120 	2.02505 	1.60650 	0.72055 	1.62520 	1.67800 
-1.02955 	-0.21490 	1.78540 	-0.15245 	-1.94845 	-2.97060 	3.33940 	1.12730 	-1.23335 	-2.87760 	4.22665 	2.05450 	-0.50050 	-3.14045 	4.52620 	2.86290 	-0.25425 	-2.28740 	3.41295 	2.65830 	0.72265 	-0.92940 	2.20140 	1.77875 	0.87040 	1.73110 	1.72255 
-0.92465 	0.02770 	2.14540 	0.17435 	-1.66515 	-2.76145 	3.77565 	1.52550 	-0.89780 	-2.65010 	4.65535 	2.43595 	-0.16555 	-2.90605 	4.89650 	3.21990 	0.05550 	-2.04065 	3.71400 	2.93885 	0.96400 	-0.76440 	2.37240 	1.94460 	1.01460 	1.83030 	1.76065 
-0.82150 	0.26530 	2.50020 	0.49900 	-1.37680 	-2.54370 	4.20380 	1.91960 	-0.55550 	-2.41420 	5.07455 	2.80985 	0.16895 	-2.66970 	5.25855 	3.56875 	0.36110 	-1.78865 	4.00735 	3.21125 	1.19885 	-0.59750 	2.53640 	2.10260 	1.15160 	1.92195 	1.79140 
-0.72165 	0.49320 	2.84675 	0.81845 	-1.08650 	-2.31890 	4.62100 	2.30645 	-0.21040 	-2.17270 	5.48225 	3.17425 	0.50180 	-2.43455 	5.61020 	3.90815 	0.66120 	-1.53380 	4.29110 	3.47415 	1.42645 	-0.43010 	2.69210 	2.25170 	1.28030 	2.00565 	1.81430 
-0.62680 	0.70695 	3.18185 	1.12975 	-0.79760 	-2.08945 	5.02445 	2.68275 	0.13370 	-1.92900 	5.87625 	3.52735 	0.83170 	-2.20305 	5.94980 	4.23685 	0.95465 	-1.27800 	4.56360 	3.72625 	1.64665 	-0.26330 	2.83835 	2.39095 	1.39960 	2.08075 	1.82890 
-0.53865 	0.90335 	3.50265 	1.42975 	-0.51350 	-1.85825 	5.41135 	3.04515 	0.47320 	-1.68685 	6.25435 	3.86725 	1.15690 	-1.97675 	6.27535 	4.55370 	1.24005 	-1.02315 	4.82340 	3.96635 	1.85925 	-0.09860 	2.97390 	2.51940 	1.50855 	2.14670 	1.83440 
-0.45895 	1.07990 	3.80635 	1.71590 	-0.23720 	-1.62895 	5.77885 	3.39065 	0.80495 	-1.44990 	6.61440 	4.19165 	1.47545 	-1.75590 	6.58475 	4.85705 	1.51565 	-0.77115 	5.06875 	4.19315 	2.06385 	0.06260 	3.09750 	2.63620 	1.60600 	2.20255 	1.83015 
-0.38900 	1.23555 	4.09065 	1.98580 	0.02885 	-1.40535 	6.12455 	3.71615 	1.12605 	-1.22105 	6.95390 	4.49830 	1.78480 	-1.53950 	6.87590 	5.14520 	1.77960 	-0.52445 	5.29810 	4.40510 	2.25960 	0.21840 	3.20770 	2.74025 	1.69090 	2.24725 	1.81525 
-0.33005 	1.37045 	4.35375 	2.23785 	0.28280 	-1.19090 	6.44630 	4.01910 	1.43380 	-1.00245 	7.27070 	4.78485 	2.08225 	-1.32630 	7.14675 	5.41600 	2.02945 	-0.28600 	5.51005 	4.60085 	2.44520 	0.36680 	3.30340 	2.83060 	1.76210 	2.27980 	1.78900 
-0.28255 	1.48590 	4.59460 	2.47100 	0.52300 	-0.98860 	6.74265 	4.29775 	1.72605 	-0.79515 	7.56290 	5.04920 	2.36535 	-1.11520 	7.39550 	5.66745 	2.26285 	-0.05900 	5.70320 	4.77900 	2.61915 	0.50530 	3.38345 	2.90630 	1.81860 	2.29945 	1.75070 
-0.24645 	1.58435 	4.81270 	2.68470 	0.74830 	-0.80065 	7.01280 	4.55105 	2.00065 	-0.59960 	7.82910 	5.28980 	2.63215 	-0.90620 	7.62065 	5.89755 	2.47760 	0.15320 	5.87685 	4.93865 	2.77980 	0.63165 	3.44745 	2.96680 	1.85995 	2.30590 	1.70000 
-0.22110 	1.66890 	5.00860 	2.87940 	0.95775 	-0.62825 	7.25670 	4.77915 	2.25645 	-0.41535 	8.06870 	5.50580 	2.88145 	-0.70045 	7.82170 	6.10510 	2.67190 	0.34755 	6.03065 	5.07925 	2.92585 	0.74390 	3.49545 	3.01205 	1.88605 	2.29920 	1.63710 
-0.20545 	1.74295 	5.18310 	3.05555 	1.15060 	-0.47175 	7.47500 	4.98290 	2.49265 	-0.24155 	8.28155 	5.69745 	3.11280 	-0.50000 	7.99875 	6.28980 	2.84485 	0.52175 	6.16500 	5.20095 	3.05640 	0.84125 	3.52835 	3.04275 	1.89775 	2.28040 	1.56260 
-0.19795 	1.80995 	5.33780 	3.21435 	1.32660 	-0.33060 	7.66905 	5.16405 	2.70905 	-0.07675 	8.46855 	5.86575 	3.32650 	-0.30725 	8.15270 	6.45210 	2.99630 	0.67445 	6.28075 	5.30445 	3.17120 	0.92370 	3.54770 	3.06020 	1.89665 	2.25090 	1.47775 
-0.19700 	1.87310 	5.47460 	3.35680 	1.48555 	-0.20340 	7.84055 	5.32465 	2.90575 	0.08080 	8.63095 	6.01260 	3.52330 	-0.12435 	8.28520 	6.59330 	3.12710 	0.80535 	6.37925 	5.39100 	3.27060 	0.99235 	3.55550 	3.06610 	1.88455 	2.21255 	1.38440 
-0.20060 	1.93500 	5.59545 	3.48420 	1.62775 	-0.08820 	7.99150 	5.46675 	3.08275 	0.23330 	8.77050 	6.14000 	3.70415 	0.04765 	8.39815 	6.71525 	3.23895 	0.91525 	6.46210 	5.46230 	3.35560 	1.04910 	3.55415 	3.06270 	1.86395 	2.16750 	1.28460 
-0.20700 	1.99735 	5.70260 	3.59750 	1.75385 	0.01680 	8.12400 	5.59240 	3.24015 	0.38245 	8.88925 	6.25020 	3.87060 	0.20845 	8.49380 	6.82010 	3.33440 	1.00595 	6.53115 	5.52020 	3.42775 	1.09640 	3.54625 	3.05240 	1.83725 	2.11805 	1.18060 
-0.21425 	2.06140 	5.79810 	3.69820 	1.86465 	0.11355 	8.24030 	5.70355 	3.37845 	0.52985 	8.98965 	6.34555 	4.02405 	0.35885 	8.57435 	6.91045 	3.41670 	1.08000 	6.58830 	5.56685 	3.48920 	1.13705 	3.53435 	3.03765 	1.80690 	2.06630 	1.07460 
-0.22080 	2.12705 	5.88395 	3.78750 	1.96125 	0.20310 	8.34260 	5.80215 	3.49795 	0.67585 	9.07390 	6.42855 	4.16610 	0.49975 	8.64210 	6.98870 	3.48970 	1.14025 	6.63555 	5.60460 	3.54215 	1.17355 	3.52100 	3.02090 	1.77530 	2.01425 	0.96860 
-0.22545 	2.19345 	5.96175 	3.86655 	2.04495 	0.28560 	8.43285 	5.89025 	3.59950 	0.81990 	9.14445 	6.50180 	4.29750 	0.63170 	8.69890 	7.05750 	3.55725 	1.18935 	6.67465 	5.63560 	3.58920 	1.20835 	3.50835 	3.00430 	1.74460 	1.96375 	0.86460 
-0.22805 	2.25875 	6.03255 	3.93665 	2.11690 	0.36025 	8.51275 	5.96965 	3.68425 	0.96020 	9.20320 	6.56760 	4.41850 	0.75430 	8.74630 	7.11890 	3.62290 	1.22925 	6.70710 	5.66180 	3.63265 	1.24325 	3.49820 	2.98980 	1.71670 	1.91635 	0.76455 
-0.22900 	2.32000 	6.09695 	3.99855 	2.17825 	0.42560 	8.58325 	6.04195 	3.75365 	1.09425 	9.25175 	6.62800 	4.52895 	0.86615 	8.78540 	7.17480 	3.68950 	1.26135 	6.73415 	5.68480 	3.67460 	1.27950 	3.49175 	2.97880 	1.69300 	1.87335 	0.67005 
-0.22970 	2.37395 	6.15470 	4.05285 	2.22985 	0.47950 	8.64485 	6.10820 	3.80960 	1.21900 	9.29115 	6.68445 	4.62830 	0.96515 	8.81685 	7.22630 	3.75880 	1.28660 	6.75675 	5.70590 	3.71660 	1.31800 	3.48965 	2.97245 	1.67470 	1.83545 	0.58265 
-0.23225 	2.41675 	6.20490 	4.09930 	2.27195 	0.52005 	8.69735 	6.16870 	3.85375 	1.33140 	9.32180 	6.73760 	4.71595 	1.04930 	8.84065 	7.27400 	3.83150 	1.30590 	6.77515 	5.72550 	3.75970 	1.35915 	3.49205 	2.97135 	1.66245 	1.80325 	0.50355 
-0.23925 	2.44480 	6.24610 	4.13720 	2.30440 	0.54540 	8.73970 	6.22290 	3.88695 	1.42875 	9.34360 	6.78700 	4.79135 	1.11725 	8.85645 	7.31760 	3.90730 	1.32045 	6.78930 	5.74370 	3.80420 	1.40300 	3.49840 	2.97555 	1.65660 	1.77690 	0.43375 
-0.25335 	2.45490 	6.27640 	4.16520 	2.32605 	0.55420 	8.77040 	6.26920 	3.90900 	1.50905 	9.35550 	6.83125 	4.85325 	1.16865 	8.86325 	7.35615 	3.98455 	1.33210 	6.79870 	5.76000 	3.84945 	1.44945 	3.50780 	2.98480 	1.65725 	1.75605 	0.37365 
-0.27725 	2.44480 	6.29375 	4.18165 	2.33560 	0.54570 	8.78755 	6.30530 	3.91865 	1.57075 	9.35635 	6.86825 	4.90040 	1.20460 	8.85995 	7.38795 	4.06105 	1.34345 	6.80235 	5.77325 	3.89450 	1.49800 	3.51915 	2.99845 	1.66425 	1.74020 	0.32325 
-0.31300 	2.41360 	6.29625 	4.18500 	2.33205 	0.52045 	8.78940 	6.32860 	3.91450 	1.61310 	9.34435 	6.89515 	4.93125 	1.22740 	8.84520 	7.41115 	4.13415 	1.35775 	6.79925 	5.78220 	3.93780 	1.54830 	3.53115 	3.01565 	1.67745 	1.72880 	0.28245 
-0.36165 	2.36185 	6.28275 	4.17445 	2.31515 	0.47965 	8.77435 	6.33660 	3.89560 	1.63570 	9.31810 	6.90930 	4.94500 	1.23990 	8.81780 	7.42380 	4.20135 	1.37895 	6.78830 	5.78540 	3.97790 	1.59980 	3.54270 	3.03550 	1.69630 	1.72115 	0.25070 
-0.42340 	2.29155 	6.25270 	4.15000 	2.28600 	0.42575 	8.74160 	6.32780 	3.86215 	1.63835 	9.27635 	6.90845 	4.94150 	1.24525 	8.77690 	7.42390 	4.26025 	1.41115 	6.76860 	5.78150 	4.01320 	1.65180 	3.55275 	3.05700 	1.72035 	1.71685 	0.22725 
-0.49730 	2.20600 	6.20645 	4.11260 	2.24655 	0.36180 	8.69090 	6.30160 	3.81565 	1.62135 	9.21835 	6.89110 	4.92160 	1.24625 	8.72195 	7.41015 	4.30915 	1.45830 	6.73930 	5.76945 	4.04255 	1.70335 	3.56060 	3.07930 	1.74890 	1.71525 	0.21115 
-0.58165 	2.10925 	6.14495 	4.06405 	2.19955 	0.29115 	8.62270 	6.25850 	3.75855 	1.58555 	9.14365 	6.85660 	4.88700 	1.24530 	8.65285 	7.38155 	4.34665 	1.52350 	6.70010 	5.74840 	4.06515 	1.75350 	3.56570 	3.10150 	1.78095 	1.71555 	0.20115 
-0.67405 	2.00575 	6.06975 	4.00635 	2.14795 	0.21720 	8.53785 	6.19965 	3.69400 	1.53235 	9.05225 	6.80510 	4.83995 	1.24460 	8.56970 	7.33770 	4.37200 	1.60920 	6.65085 	5.71795 	4.08075 	1.80145 	3.56780 	3.12300 	1.81540 	1.71710 	0.19575 
-0.77165 	1.89990 	5.98265 	3.94165 	2.09455 	0.14300 	8.43760 	6.12680 	3.62485 	1.46395 	8.94435 	6.73700 	4.78265 	1.24655 	8.47290 	7.27860 	4.38505 	1.71620 	6.59180 	5.67825 	4.08965 	1.84695 	3.56695 	3.14330 	1.85155 	1.71915 	0.19345 
-0.87160 	1.79560 	5.88555 	3.87190 	2.04130 	0.07125 	8.32340 	6.04175 	3.55355 	1.38285 	8.82065 	6.65295 	4.71675 	1.25365 	8.36325 	7.20475 	4.38610 	1.84460 	6.52355 	5.62995 	4.09275 	1.89035 	3.56365 	3.16235 	1.88880 	1.72120 	0.19300 
-0.97125 	1.69595 	5.78025 	3.79860 	1.98955 	0.00375 	8.19645 	5.94610 	3.48180 	1.29215 	8.68175 	6.55380 	4.64315 	1.26875 	8.24175 	7.11700 	4.37590 	1.99270 	6.44695 	5.57390 	4.09140 	1.93285 	3.55860 	3.18045 	1.92730 	1.72270 	0.19340 
-1.06855 	1.60285 	5.66820 	3.72265 	1.93960 	-0.05845 	8.05810 	5.84115 	3.41045 	1.19480 	8.52860 	6.44035 	4.56210 	1.29420 	8.10940 	7.01625 	4.35560 	2.15755 	6.36320 	5.51140 	4.08715 	1.97585 	3.55275 	3.19820 	1.96725 	1.72390 	0.19430 
-1.16235 	1.51690 	5.55035 	3.64430 	1.89110 	-0.11530 	7.90920 	5.72760 	3.33920 	1.09355 	8.36195 	6.31325 	4.47315 	1.33120 	7.96720 	6.90365 	4.32635 	2.33450 	6.27335 	5.44350 	4.08120 	2.02055 	3.54715 	3.21610 	2.00945 	1.72485 	0.19550 
-1.25235 	1.43720 	5.42700 	3.56315 	1.84315 	-0.16740 	7.75025 	5.60530 	3.26730 	0.99120 	8.18230 	6.17290 	4.37565 	1.37930 	7.81595 	6.78005 	4.28915 	2.51760 	6.17815 	5.37110 	4.07435 	2.06775 	3.54240 	3.23455 	2.05405 	1.72580 	0.19705 
-1.33890 	1.36145 	5.29780 	3.47780 	1.79430 	-0.21610 	7.58085 	5.47340 	3.19340 	0.88970 	7.98970 	6.01950 	4.26915 	1.43585 	7.65600 	6.64590 	4.24465 	2.69985 	6.07795 	5.29420 	4.06620 	2.11725 	3.53865 	3.25335 	2.10090 	1.72670 	0.19905 
-1.42325 	1.28615 	5.16150 	3.38640 	1.74300 	-0.26290 	7.40025 	5.33015 	3.11590 	0.79080 	7.78380 	5.85235 	4.15335 	1.49635 	7.48705 	6.50115 	4.19295 	2.87365 	5.97240 	5.21220 	4.05570 	2.16805 	3.53530 	3.27155 	2.14895 	1.72730 	0.20135 
-1.50710 	1.20690 	5.01645 	3.28665 	1.68735 	-0.30970 	7.20670 	5.17330 	3.03315 	0.69500 	7.56355 	5.67020 	4.02815 	1.55480 	7.30810 	6.34510 	4.13330 	3.03100 	5.86050 	5.12380 	4.04075 	2.21815 	3.53090 	3.28750 	2.19630 	1.72645 	0.20335 
-1.59255 	1.11895 	4.86035 	3.17575 	1.62505 	-0.35900 	6.99850 	5.00005 	2.94305 	0.60190 	7.32780 	5.47140 	3.89375 	1.60465 	7.11790 	6.17680 	4.06465 	3.16420 	5.74080 	5.02715 	4.01900 	2.26490 	3.52355 	3.29905 	2.24060 	1.72270 	0.20400 
-1.68150 	1.01755 	4.69090 	3.05100 	1.55350 	-0.41330 	6.77340 	4.80780 	2.84340 	0.51030 	7.07500 	5.25415 	3.74995 	1.63955 	6.91485 	5.99505 	3.98585 	3.26625 	5.61165 	4.92020 	3.98775 	2.30520 	3.51090 	3.30365 	2.27915 	1.71415 	0.20190 
-1.77625 	0.89890 	4.50585 	2.90980 	1.46995 	-0.47525 	6.52960 	4.59440 	2.73135 	0.41845 	6.80430 	5.01700 	3.59615 	1.65410 	6.69770 	5.79865 	3.89560 	3.33115 	5.47130 	4.80110 	3.94475 	2.33565 	3.49050 	3.29890 	2.30915 	1.69875 	0.19555 
-1.87840 	0.76005 	4.30330 	2.75000 	1.37170 	-0.54750 	6.26585 	4.35840 	2.60420 	0.32455 	6.51495 	4.75920 	3.43170 	1.64415 	6.46535 	5.58700 	3.79310 	3.35490 	5.31830 	4.66830 	3.88785 	2.35325 	3.45985 	3.28245 	2.32805 	1.67460 	0.18330 
-1.98925 	0.59980 	4.08235 	2.57030 	1.25680 	-0.63175 	5.98160 	4.09945 	2.45960 	0.22730 	6.20720 	4.48075 	3.25565 	1.60710 	6.21750 	5.36015 	3.67800 	3.33565 	5.15175 	4.52065 	3.81580 	2.35570 	3.41700 	3.25255 	2.33375 	1.64015 	0.16400 
-2.10935 	0.41870 	3.84290 	2.37030 	1.12410 	-0.72850 	5.67745 	3.81850 	2.29600 	0.12615 	5.88205 	4.18275 	3.06715 	1.54210 	5.95445 	5.11875 	3.55065 	3.27405 	4.97120 	4.35805 	3.72800 	2.34150 	3.36015 	3.20790 	2.32495 	1.59425 	0.13665 
-2.23830 	0.21895 	3.58590 	2.15080 	0.97325 	-0.83680 	5.35495 	3.51760 	2.11285 	0.02155 	5.54145 	3.86710 	2.86600 	1.45020 	5.67745 	4.86435 	3.41195 	3.17290 	4.77700 	4.18085 	3.62470 	2.31060 	3.28840 	3.14795 	2.30090 	1.53645 	0.10075 
-2.37505 	0.00455 	3.31330 	1.91310 	0.80455 	-0.95430 	5.01645 	3.19950 	1.91035 	-0.08530 	5.18780 	3.53650 	2.65220 	1.33395 	5.38815 	4.59865 	3.26325 	3.03680 	4.57000 	3.99000 	3.50660 	2.26395 	3.20140 	3.07285 	2.26145 	1.46675 	0.05600 
-2.51775 	-0.21970 	3.02770 	1.65920 	0.61885 	-1.07820 	4.66500 	2.86750 	1.68945 	-0.19230 	4.82405 	3.19415 	2.42635 	1.19725 	5.08855 	4.32400 	3.10615 	2.87145 	4.35160 	3.78695 	3.37510 	2.20360 	3.09940 	2.98300 	2.20750 	1.38565 	0.00275 
-2.66420 	-0.44820 	2.73220 	1.39160 	0.41725 	-1.20550 	4.30385 	2.52505 	1.45195 	-0.29745 	4.45310 	2.84360 	2.18960 	1.04495 	4.78105 	4.04260 	2.94190 	2.68310 	4.12320 	3.57360 	3.23180 	2.13225 	2.98335 	2.87970 	2.14025 	1.29415 	-0.05815 
-2.81185 	-0.67540 	2.43020 	1.11305 	0.20145 	-1.33340 	3.93660 	2.17600 	1.20055 	-0.39850 	4.07830 	2.48860 	1.94395 	0.88230 	4.46805 	3.75685 	2.77215 	2.47825 	3.88680 	3.35180 	3.07865 	2.05340 	2.85470 	2.76455 	2.06180 	1.19390 	-0.12540 
-2.95815 	-0.89635 	2.12505 	0.82630 	-0.02685 	-1.45975 	3.56675 	1.82410 	0.93825 	-0.49385 	3.70250 	2.13325 	1.69200 	0.71465 	4.15210 	3.46915 	2.59815 	2.26350 	3.64440 	3.12390 	2.91770 	1.97030 	2.71555 	2.63965 	1.97440 	1.08690 	-0.19690 
-3.10085 	-1.10685 	1.81990 	0.53445 	-0.26565 	-1.58315 	3.19755 	1.47295 	0.66820 	-0.58255 	3.32870 	1.78115 	1.43650 	0.54675 	3.83540 	3.18155 	2.42080 	2.04545 	3.39790 	2.89185 	2.75080 	1.88625 	2.56785 	2.50700 	1.88055 	0.97525 	-0.27060 
-3.23825 	-1.30440 	1.51720 	0.24000 	-0.51315 	-1.70315 	2.83190 	1.12550 	0.39355 	-0.66430 	2.95905 	1.43570 	1.18015 	0.38215 	3.51970 	2.89565 	2.24055 	1.82995 	3.14880 	2.65725 	2.57935 	1.80335 	2.41355 	2.36835 	1.78210 	0.86085 	-0.34455 
-3.36950 	-1.48810 	1.21895 	-0.05450 	-0.76710 	-1.82030 	2.47195 	0.78460 	0.11715 	-0.73990 	2.59515 	1.09950 	0.92545 	0.22365 	3.20620 	2.61235 	2.05705 	1.62170 	2.89840 	2.42125 	2.40445 	1.72280 	2.25420 	2.22520 	1.68030 	0.74520 	-0.41740 
-3.49410 	-1.65850 	0.92640 	-0.34690 	-1.02515 	-1.93545 	2.11925 	0.45235 	-0.15800 	-0.81050 	2.23820 	0.77425 	0.67460 	0.07305 	2.89560 	2.33205 	1.86970 	1.42395 	2.64745 	2.18455 	2.22640 	1.64440 	2.09090 	2.07800 	1.57565 	0.62920 	-0.48855 
-3.61220 	-1.81705 	0.64055 	-0.63500 	-1.28415 	-2.04960 	1.77520 	0.13055 	-0.42880 	-0.87760 	1.88895 	0.46130 	0.43015 	-0.06840 	2.58825 	2.05480 	1.67795 	1.23860 	2.39630 	1.94735 	2.04535 	1.56695 	1.92440 	1.92710 	1.46785 	0.51305 	-0.55790 
-3.72400 	-1.96635 	0.36205 	-0.91655 	-1.54045 	-2.16340 	1.44070 	-0.17925 	-0.69205 	-0.94320 	1.54780 	0.16145 	0.19400 	-0.20020 	2.28415 	1.78045 	1.48145 	1.06595 	2.14545 	1.70985 	1.86135 	1.48855 	1.75525 	1.77250 	1.35625 	0.39685 	-0.62575 
-3.82980 	-2.10930 	0.09140 	-1.18970 	-1.79070 	-2.27685 	1.11625 	-0.47595 	-0.94490 	-1.00895 	1.21500 	-0.12480 	-0.03210 	-0.32275 	1.98335 	1.50875 	1.28040 	0.90525 	1.89505 	1.47220 	1.67430 	1.40710 	1.58365 	1.61395 	1.24020 	0.28010 	-0.69250 
-3.93010 	-2.24900 	-0.17125 	-1.45305 	-2.03160 	-2.38960 	0.80205 	-0.75920 	-1.18495 	-1.07665 	0.89055 	-0.39770 	-0.24670 	-0.43735 	1.68580 	1.23950 	1.07525 	0.75500 	1.64530 	1.23455 	1.48430 	1.32055 	1.40995 	1.45130 	1.11915 	0.16245 	-0.75855 
-4.02510 	-2.38850 	-0.42585 	-1.70535 	-2.26065 	-2.50070 	0.49825 	-1.02920 	-1.41040 	-1.14795 	0.57460 	-0.65745 	-0.44930 	-0.54590 	1.39155 	0.97280 	0.86710 	0.61340 	1.39670 	0.99730 	1.29175 	1.22740 	1.23440 	1.28445 	0.99260 	0.04360 	-0.82385 
-4.11480 	-2.53005 	-0.67200 	-1.94575 	-2.47605 	-2.60905 	0.20505 	-1.28635 	-1.62015 	-1.22390 	0.26720 	-0.90480 	-0.63920 	-0.65065 	1.10115 	0.70900 	0.65720 	0.47855 	1.14995 	0.76125 	1.09755 	1.12720 	1.05745 	1.11360 	0.86065 	-0.07620 	-0.88805 
-4.19880 	-2.67485 	-0.90920 	-2.17345 	-2.67635 	-2.71310 	-0.07715 	-1.53115 	-1.81330 	-1.30545 	-0.03100 	-1.14005 	-0.81585 	-0.75400 	0.81555 	0.44905 	0.44740 	0.34900 	0.90640 	0.52765 	0.90270 	1.02010 	0.87995 	0.93960 	0.72365 	-0.19640 	-0.95015 
-4.27635 	-2.82290 	-1.13645 	-2.38765 	-2.86050 	-2.81170 	-0.34755 	-1.76365 	-1.98955 	-1.39310 	-0.31910 	-1.36330 	-0.97815 	-0.85830 	0.53615 	0.19435 	0.23990 	0.22325 	0.66770 	0.29810 	0.70900 	0.90715 	0.70285 	0.76350 	0.58265 	-0.31610 	-1.00900 
-4.34640 	-2.97280 	-1.35245 	-2.58765 	-3.02780 	-2.90380 	-0.60485 	-1.98365 	-2.14870 	-1.48700 	-0.59570 	-1.57400 	-1.12520 	-0.96590 	0.26500 	-0.05315 	0.03725 	0.09940 	0.43570 	0.07455 	0.51835 	0.78955 	0.52735 	0.58680 	0.43880 	-0.43390 	-1.06325 
-4.40805 	-3.12210 	-1.55585 	-2.77280 	-3.17775 	-2.98870 	-0.84770 	-2.19050 	-2.29105 	-1.58735 	-0.85940 	-1.77140 	-1.25575 	-1.07905 	0.00405 	-0.29135 	-0.15850 	-0.02470 	0.21245 	-0.14110 	0.33255 	0.66835 	0.35460 	0.41100 	0.29370 	-0.54875 	-1.11150 
-4.46060 	-3.26765 	-1.74525 	-2.94300 	-3.31005 	-3.06590 	-1.07505 	-2.38365 	-2.41740 	-1.69340 	-1.10905 	-1.95465 	-1.36875 	-1.19965 	-0.24500 	-0.51840 	-0.34565 	-0.15180 	-0.00055 	-0.34735 	0.15310 	0.54390 	0.18565 	0.23765 	0.14880 	-0.65955 	-1.15270 
-4.50375 	-3.40580 	-1.91985 	-3.09820 	-3.42485 	-3.13495 	-1.28600 	-2.56275 	-2.52870 	-1.80400 	-1.34390 	-2.12305 	-1.46385 	-1.32895 	-0.48080 	-0.73305 	-0.52355 	-0.28430 	-0.20240 	-0.54355 	-0.01955 	0.41595 	0.02105 	0.06770 	0.00515 	-0.76590 	-1.18645 
-4.53755 	-3.53290 	-2.07895 	-3.23880 	-3.52245 	-3.19530 	-1.48025 	-2.72805 	-2.62625 	-1.91715 	-1.56390 	-2.27650 	-1.54105 	-1.46730 	-0.70275 	-0.93485 	-0.69255 	-0.42445 	-0.39275 	-0.72935 	-0.18565 	0.28355 	-0.13890 	-0.09820 	-0.13650 	-0.86775 	-1.21280 
-4.56235 	-3.64530 	-2.22245 	-3.36555 	-3.60365 	-3.24665 	-1.65805 	-2.88000 	-2.71175 	-2.03020 	-1.76945 	-2.41525 	-1.60135 	-1.61415 	-0.91070 	-1.12390 	-0.85365 	-0.57345 	-0.57200 	-0.90545 	-0.34610 	0.14560 	-0.29445 	-0.25980 	-0.27585 	-0.96530 	-1.23255 
-4.57860 	-3.73965 	-2.35040 	-3.47885 	-3.66965 	-3.28905 	-1.81970 	-3.01910 	-2.78655 	-2.14040 	-1.96105 	-2.53975 	-1.64635 	-1.76775 	-1.10480 	-1.30065 	-1.00805 	-0.73150 	-0.74055 	-1.07235 	-0.50235 	0.00110 	-0.44560 	-0.41695 	-0.41285 	-1.05885 	-1.24635 
-4.58630 	-3.81300 	-2.46240 	-3.57905 	-3.72175 	-3.32270 	-1.96545 	-3.14535 	-2.85180 	-2.24505 	-2.13915 	-2.65030 	-1.67850 	-1.92525 	-1.28480 	-1.46535 	-1.15685 	-0.89755 	-0.89865 	-1.23060 	-0.65525 	-0.15045 	-0.59205 	-0.56925 	-0.54750 	-1.14815 	-1.25500 
-4.58555 	-3.86285 	-2.55810 	-3.66580 	-3.76130 	-3.34780 	-2.09520 	-3.25830 	-2.90795 	-2.34180 	-2.30360 	-2.74710 	-1.70035 	-2.08290 	-1.45040 	-1.61815 	-1.30030 	-1.06920 	-1.04625 	-1.38010 	-0.80550 	-0.30870 	-0.73325 	-0.71620 	-0.67945 	-1.23295 	-1.25890 
-4.57585 	-3.88765 	-2.63685 	-3.73850 	-3.78915 	-3.36415 	-2.20885 	-3.35715 	-2.95525 	-2.42810 	-2.45410 	-2.83010 	-1.71440 	-2.23595 	-1.60060 	-1.75845 	-1.43800 	-1.24320 	-1.18280 	-1.52025 	-0.95275 	-0.47225 	-0.86780 	-0.85690 	-0.80800 	-1.31220 	-1.25830 
-4.55670 	-3.88680 	-2.69805 	-3.79650 	-3.80620 	-3.37100 	-2.30615 	-3.44120 	-2.99355 	-2.50150 	-2.59005 	-2.89940 	-1.72320 	-2.37920 	-1.73480 	-1.88585 	-1.56885 	-1.41530 	-1.30735 	-1.65015 	-1.09605 	-0.63930 	-0.99420 	-0.99000 	-0.93205 	-1.38495 	-1.25300 
-4.52730 	-3.86095 	-2.74145 	-3.83935 	-3.81340 	-3.36775 	-2.38735 	-3.51005 	-3.02275 	-2.55925 	-2.71110 	-2.95555 	-1.72895 	-2.50750 	-1.85195 	-1.99950 	-1.69155 	-1.58105 	-1.41915 	-1.76855 	-1.23385 	-0.80710 	-1.11080 	-1.11425 	-1.05015 	-1.45025 	-1.24275 
-4.48720 	-3.81200 	-2.76730 	-3.86725 	-3.81185 	-3.35400 	-2.45285 	-3.56370 	-3.04290 	-2.59895 	-2.81700 	-2.99940 	-1.73400 	-2.61610 	-1.95160 	-2.09885 	-1.80440 	-1.73595 	-1.51725 	-1.87420 	-1.36420 	-0.97280 	-1.21590 	-1.22835 	-1.16070 	-1.50725 	-1.22740 
-4.43615 	-3.74335 	-2.77650 	-3.88070 	-3.80290 	-3.33035 	-2.50350 	-3.60275 	-3.05420 	-2.61875 	-2.90780 	-3.03200 	-1.74060 	-2.70135 	-2.03360 	-2.18350 	-1.90590 	-1.87540 	-1.60105 	-1.96585 	-1.48500 	-1.13335 	-1.30815 	-1.33110 	-1.26190 	-1.55530 	-1.20670 
-4.37405 	-3.65895 	-2.77030 	-3.88080 	-3.78800 	-3.29770 	-2.54040 	-3.62760 	-3.05710 	-2.61800 	-2.98370 	-3.05440 	-1.75085 	-2.76095 	-2.09790 	-2.25280 	-1.99460 	-1.99555 	-1.66990 	-2.04250 	-1.59390 	-1.28545 	-1.38645 	-1.42140 	-1.35215 	-1.59410 	-1.18095 
-4.30115 	-3.56350 	-2.75070 	-3.86875 	-3.76860 	-3.25760 	-2.56485 	-3.63890 	-3.05250 	-2.59705 	-3.04490 	-3.06715 	-1.76665 	-2.79380 	-2.14480 	-2.30635 	-2.06925 	-2.09325 	-1.72355 	-2.10330 	-1.68895 	-1.42585 	-1.45015 	-1.49845 	-1.42995 	-1.62340 	-1.15030 
-4.21795 	-3.46165 	-2.71960 	-3.84615 	-3.74580 	-3.21175 	-2.57820 	-3.63720 	-3.04165 	-2.55800 	-3.09185 	-3.07085 	-1.78950 	-2.80035 	-2.17500 	-2.34380 	-2.12900 	-2.16610 	-1.76185 	-2.14765 	-1.76845 	-1.55150 	-1.49905 	-1.56150 	-1.49425 	-1.64345 	-1.11520 
-4.12520 	-3.35775 	-2.67910 	-3.81455 	-3.72005 	-3.16145 	-2.58160 	-3.62300 	-3.02575 	-2.50450 	-3.12495 	-3.06560 	-1.82020 	-2.78200 	-2.18900 	-2.36490 	-2.17305 	-2.21270 	-1.78495 	-2.17530 	-1.83110 	-1.65980 	-1.53330 	-1.61005 	-1.54425 	-1.65430 	-1.07620 
-4.02405 	-3.25550 	-2.63130 	-3.77535 	-3.69155 	-3.10810 	-2.57615 	-3.59695 	-3.00590 	-2.44115 	-3.14455 	-3.05160 	-1.85880 	-2.74100 	-2.18750 	-2.36950 	-2.20140 	-2.23270 	-1.79290 	-2.18620 	-1.87610 	-1.74915 	-1.55330 	-1.64385 	-1.57945 	-1.65655 	-1.03370 
-3.91595 	-3.15755 	-2.57810 	-3.72995 	-3.65985 	-3.05290 	-2.56300 	-3.55990 	-2.98260 	-2.37310 	-3.15135 	-3.02890 	-1.90470 	-2.68035 	-2.17155 	-2.35785 	-2.21445 	-2.22675 	-1.78610 	-2.18055 	-1.90305 	-1.81870 	-1.55985 	-1.66290 	-1.60015 	-1.65085 	-0.98850 
-3.80290 	-3.06600 	-2.52150 	-3.67980 	-3.62425 	-2.99700 	-2.54320 	-3.51300 	-2.95620 	-2.30555 	-3.14615 	-2.99790 	-1.95685 	-2.60320 	-2.14215 	-2.33055 	-2.21340 	-2.19680 	-1.76535 	-2.15905 	-1.91220 	-1.86885 	-1.55435 	-1.66770 	-1.60710 	-1.63805 	-0.94120 
-3.68725 	-2.98195 	-2.46375 	-3.62645 	-3.58425 	-2.94185 	-2.51825 	-3.45820 	-2.92700 	-2.24295 	-3.13050 	-2.95960 	-2.01405 	-2.51310 	-2.10105 	-2.28910 	-2.20020 	-2.14565 	-1.73190 	-2.12315 	-1.90480 	-1.90065 	-1.53855 	-1.65945 	-1.60165 	-1.61950 	-0.89290 
-3.57180 	-2.90625 	-2.40735 	-3.57170 	-3.53980 	-2.88885 	-2.49005 	-3.39825 	-2.89555 	-2.18930 	-3.10655 	-2.91610 	-2.07510 	-2.41395 	-2.05070 	-2.23575 	-2.17770 	-2.07730 	-1.68785 	-2.07490 	-1.88310 	-1.91615 	-1.51500 	-1.64005 	-1.58575 	-1.59705 	-0.84495 
-3.45985 	-2.83905 	-2.35480 	-3.51795 	-3.49160 	-2.83965 	-2.46100 	-3.33675 	-2.86305 	-2.14780 	-3.07725 	-2.87015 	-2.13940 	-2.31000 	-1.99395 	-2.17365 	-2.14925 	-1.99640 	-1.63595 	-2.01735 	-1.85005 	-1.91780 	-1.48660 	-1.61205 	-1.56185 	-1.57285 	-0.79890 
-3.35430 	-2.78030 	-2.30895 	-3.46760 	-3.44110 	-2.79590 	-2.43380 	-3.27750 	-2.83125 	-2.12095 	-3.04600 	-2.82515 	-2.20680 	-2.20570 	-1.93435 	-2.10660 	-2.11855 	-1.90830 	-1.57955 	-1.95400 	-1.80935 	-1.90825 	-1.45665 	-1.57850 	-1.53265 	-1.54935 	-0.75675 
-3.25800 	-2.72945 	-2.27215 	-3.42330 	-3.39020 	-2.75920 	-2.41110 	-3.22470 	-2.80195 	-2.11035 	-3.01630 	-2.78460 	-2.27765 	-2.10580 	-1.87540 	-2.03870 	-2.08895 	-1.81835 	-1.52210 	-1.88870 	-1.76475 	-1.89040 	-1.42845 	-1.54270 	-1.50110 	-1.52900 	-0.72050 
-3.17340 	-2.68575 	-2.24625 	-3.38725 	-3.34115 	-2.73110 	-2.39545 	-3.18170 	-2.77675 	-2.11705 	-2.99130 	-2.75140 	-2.35240 	-2.01550 	-1.82045 	-1.97380 	-2.06345 	-1.73140 	-1.46715 	-1.82510 	-1.72010 	-1.86690 	-1.40515 	-1.50795 	-1.47030 	-1.51425 	-0.69220 
-3.10210 	-2.64810 	-2.23260 	-3.36110 	-3.29585 	-2.71260 	-2.38870 	-3.15115 	-2.75675 	-2.14100 	-2.97360 	-2.72775 	-2.43115 	-1.93965 	-1.77215 	-1.91515 	-2.04395 	-1.65190 	-1.41760 	-1.76650 	-1.67840 	-1.84015 	-1.38920 	-1.47720 	-1.44310 	-1.50685 	-0.67370 
-3.04485 	-2.61510 	-2.23130 	-3.34550 	-3.25560 	-2.70440 	-2.39185 	-3.13465 	-2.74215 	-2.18120 	-2.96455 	-2.71445 	-2.51355 	-1.88230 	-1.73245 	-1.86500 	-2.03140 	-1.58260 	-1.37565 	-1.71525 	-1.64195 	-1.81220 	-1.38220 	-1.45275 	-1.42190 	-1.50785 	-0.66615 
-3.00145 	-2.58510 	-2.24150 	-3.34015 	-3.22125 	-2.70655 	-2.40495 	-3.13215 	-2.73255 	-2.23600 	-2.96460 	-2.71130 	-2.59850 	-1.84615 	-1.70225 	-1.82450 	-2.02560 	-1.52535 	-1.34230 	-1.67275 	-1.61195 	-1.78450 	-1.38490 	-1.43595 	-1.40820 	-1.51755 	-0.67015 
-2.97105 	-2.55685 	-2.26160 	-3.34405 	-3.19295 	-2.71870 	-2.42710 	-3.14275 	-2.72705 	-2.30325 	-2.97315 	-2.71690 	-2.68415 	-1.83220 	-1.68140 	-1.79370 	-2.02585 	-1.48030 	-1.31795 	-1.63940 	-1.58870 	-1.75810 	-1.39690 	-1.42750 	-1.40285 	-1.53560 	-0.68555 
-2.95210 	-2.52920 	-2.28950 	-3.35585 	-3.17080 	-2.74025 	-2.45695 	-3.16500 	-2.72505 	-2.38050 	-2.98910 	-2.72950 	-2.76880 	-1.83955 	-1.66940 	-1.77215 	-2.03125 	-1.44665 	-1.30220 	-1.61515 	-1.57215 	-1.73360 	-1.41760 	-1.42740 	-1.40590 	-1.56110 	-0.71185 
-2.94300 	-2.50195 	-2.32305 	-3.37415 	-3.15470 	-2.76990 	-2.49300 	-3.19700 	-2.72615 	-2.46495 	-3.01120 	-2.74720 	-2.85060 	-1.86545 	-1.66535 	-1.75905 	-2.04145 	-1.42290 	-1.29445 	-1.59950 	-1.56200 	-1.71140 	-1.44575 	-1.43525 	-1.41695 	-1.59305 	-0.74825 
-2.94175 	-2.47545 	-2.35990 	-3.39760 	-3.14425 	-2.80540 	-2.53345 	-3.23690 	-2.73005 	-2.55265 	-3.03800 	-2.76835 	-2.92795 	-1.90555 	-1.66840 	-1.75355 	-2.05635 	-1.40695 	-1.29375 	-1.59180 	-1.55790 	-1.69160 	-1.48010 	-1.45040 	-1.43505 	-1.63035 	-0.79355 
-2.94615 	-2.45045 	-2.39795 	-3.42450 	-3.13830 	-2.84330 	-2.57635 	-3.28250 	-2.73595 	-2.63870 	-3.06795 	-2.79125 	-2.99895 	-1.95395 	-1.67705 	-1.75460 	-2.07605 	-1.39655 	-1.29900 	-1.59110 	-1.55930 	-1.67405 	-1.51905 	-1.47180 	-1.45890 	-1.67180 	-0.84645 
-2.95360 	-2.42765 	-2.43470 	-3.45270 	-3.13515 	-2.87940 	-2.61920 	-3.33080 	-2.74220 	-2.71730 	-3.09895 	-2.81410 	-3.06135 	-2.00410 	-1.68965 	-1.76090 	-2.10065 	-1.38930 	-1.30855 	-1.59615 	-1.56555 	-1.65835 	-1.56070 	-1.49805 	-1.48670 	-1.71580 	-0.90500 
-2.96115 	-2.40765 	-2.46750 	-3.47950 	-3.13175 	-2.90905 	-2.65920 	-3.37855 	-2.74645 	-2.78240 	-3.12865 	-2.83480 	-3.11230 	-2.04955 	-1.70395 	-1.77075 	-2.12945 	-1.38330 	-1.32040 	-1.60500 	-1.57545 	-1.64385 	-1.60295 	-1.52715 	-1.51625 	-1.76050 	-0.96680 
-2.96615 	-2.39065 	-2.49375 	-3.50210 	-3.12520 	-2.92850 	-2.69345 	-3.42190 	-2.74565 	-2.82890 	-3.15425 	-2.85105 	-3.14890 	-2.08525 	-1.71765 	-1.78215 	-2.16110 	-1.37755 	-1.33230 	-1.61580 	-1.58775 	-1.63020 	-1.64340 	-1.55710 	-1.54535 	-1.80375 	-1.02905 
-2.96655 	-2.37675 	-2.51140 	-3.51785 	-3.11260 	-2.93500 	-2.71910 	-3.45690 	-2.73710 	-2.85335 	-3.17325 	-2.86050 	-3.16805 	-2.10835 	-1.72830 	-1.79290 	-2.19360 	-1.37235 	-1.34210 	-1.62630 	-1.60100 	-1.61745 	-1.68005 	-1.58595 	-1.57210 	-1.84330 	-1.08890 
-2.96080 	-2.36600 	-2.51905 	-3.52480 	-3.09215 	-2.92785 	-2.73415 	-3.48025 	-2.71895 	-2.85460 	-3.18340 	-2.86100 	-3.16785 	-2.11835 	-1.73410 	-1.80095 	-2.22425 	-1.36920 	-1.34790 	-1.63480 	-1.61400 	-1.60600 	-1.71130 	-1.61200 	-1.59515 	-1.87730 	-1.14410 
-2.94855 	-2.35835 	-2.51605 	-3.52185 	-3.06330 	-2.90775 	-2.73735 	-3.48950 	-2.69035 	-2.83365 	-3.18315 	-2.85100 	-3.14740 	-2.11720 	-1.73335 	-1.80445 	-2.25025 	-1.37075 	-1.34835 	-1.63975 	-1.62560 	-1.59690 	-1.73620 	-1.63440 	-1.61410 	-1.90445 	-1.19290 
-2.92995 	-2.35300 	-2.50260 	-3.50875 	-3.02655 	-2.87660 	-2.72805 	-3.48340 	-2.65180 	-2.79315 	-3.17160 	-2.82935 	-3.10710 	-2.10820 	-1.72510 	-1.80165 	-2.26900 	-1.38020 	-1.34255 	-1.64020 	-1.63480 	-1.59085 	-1.75425 	-1.65240 	-1.62885 	-1.92395 	-1.23440 
-2.90540 	-2.34885 	-2.47900 	-3.48560 	-2.98325 	-2.83665 	-2.70620 	-3.46155 	-2.60475 	-2.73685 	-3.14830 	-2.79565 	-3.04875 	-2.09530 	-1.70875 	-1.79125 	-2.27790 	-1.40030 	-1.33005 	-1.63545 	-1.64070 	-1.58825 	-1.76530 	-1.66575 	-1.63950 	-1.93540 	-1.26820 
-2.87535 	-2.34375 	-2.44580 	-3.45275 	-2.93490 	-2.78990 	-2.67205 	-3.42450 	-2.55080 	-2.66845 	-3.11340 	-2.75005 	-2.97445 	-2.08150 	-1.68395 	-1.77225 	-2.27495 	-1.43300 	-1.31065 	-1.62515 	-1.64245 	-1.58905 	-1.76960 	-1.67400 	-1.64630 	-1.93885 	-1.29435 
-2.84005 	-2.33500 	-2.40340 	-3.41070 	-2.88285 	-2.73790 	-2.62610 	-3.37305 	-2.49185 	-2.59120 	-3.06720 	-2.69330 	-2.88690 	-2.06920 	-1.65055 	-1.74400 	-2.25860 	-1.47895 	-1.28435 	-1.60915 	-1.63935 	-1.59235 	-1.76730 	-1.67700 	-1.64900 	-1.93460 	-1.31315 
-2.79935 	-2.31950 	-2.35225 	-3.35965 	-2.82810 	-2.68180 	-2.56895 	-3.30865 	-2.42925 	-2.50765 	-3.01055 	-2.62650 	-2.78880 	-2.05930 	-1.60895 	-1.70645 	-2.22785 	-1.53720 	-1.25150 	-1.58770 	-1.63090 	-1.59695 	-1.75860 	-1.67450 	-1.64760 	-1.92335 	-1.32500 
-2.75295 	-2.29400 	-2.29250 	-3.29990 	-2.77135 	-2.62220 	-2.50140 	-3.23280 	-2.36440 	-2.41945 	-2.94425 	-2.55115 	-2.68250 	-2.05155 	-1.55965 	-1.65995 	-2.18225 	-1.60515 	-1.21265 	-1.56115 	-1.61685 	-1.60140 	-1.74395 	-1.66660 	-1.64170 	-1.90575 	-1.33070 
-2.70060 	-2.25615 	-2.22470 	-3.23190 	-2.71310 	-2.55950 	-2.42455 	-3.14730 	-2.29845 	-2.32790 	-2.86955 	-2.46870 	-2.56985 	-2.04490 	-1.50340 	-1.60530 	-2.12210 	-1.67855 	-1.16875 	-1.53015 	-1.59740 	-1.60445 	-1.72410 	-1.65350 	-1.63135 	-1.88295 	-1.33105 
-2.64215 	-2.20410 	-2.14950 	-3.15620 	-2.65340 	-2.49395 	-2.33970 	-3.05425 	-2.23240 	-2.23345 	-2.78790 	-2.38075 	-2.45225 	-2.03745 	-1.44150 	-1.54365 	-2.04810 	-1.75215 	-1.12080 	-1.49535 	-1.57275 	-1.60465 	-1.69965 	-1.63575 	-1.61655 	-1.85600 	-1.32710 
-2.57760 	-2.13725 	-2.06785 	-3.07385 	-2.59245 	-2.42535 	-2.24825 	-2.95585 	-2.16730 	-2.13640 	-2.70060 	-2.28870 	-2.33090 	-2.02720 	-1.37510 	-1.47625 	-1.96150 	-1.82000 	-1.06995 	-1.45765 	-1.54350 	-1.60090 	-1.67125 	-1.61390 	-1.59735 	-1.82610 	-1.31985 
-2.50730 	-2.05610 	-1.98110 	-2.98600 	-2.53025 	-2.35340 	-2.15190 	-2.85445 	-2.10390 	-2.03680 	-2.60935 	-2.19380 	-2.20680 	-2.01225 	-1.30565 	-1.40490 	-1.86435 	-1.87675 	-1.01750 	-1.41765 	-1.51005 	-1.59190 	-1.63955 	-1.58850 	-1.57390 	-1.79415 	-1.31020 
-2.43200 	-1.96250 	-1.89085 	-2.89415 	-2.46665 	-2.27715 	-2.05240 	-2.75255 	-2.04290 	-1.93465 	-2.51560 	-2.09720 	-2.08085 	-1.99140 	-1.23470 	-1.33135 	-1.75925 	-1.91780 	-0.96485 	-1.37640 	-1.47315 	-1.57705 	-1.60495 	-1.56020 	-1.54620 	-1.76110 	-1.29920 
-2.35245 	-1.85925 	-1.79885 	-2.79995 	-2.40170 	-2.19575 	-1.95155 	-2.65220 	-1.98450 	-1.83030 	-2.42095 	-2.00015 	-1.95360 	-1.96395 	-1.16405 	-1.25765 	-1.64955 	-1.94010 	-0.91325 	-1.33480 	-1.43370 	-1.55580 	-1.56830 	-1.52970 	-1.51450 	-1.72775 	-1.28765 
-2.27005 	-1.75000 	-1.70690 	-2.70480 	-2.33510 	-2.10830 	-1.85110 	-2.55495 	-1.92855 	-1.72420 	-2.32710 	-1.90355 	-1.82515 	-1.92945 	-1.09525 	-1.18585 	-1.53880 	-1.94200 	-0.86420 	-1.29390 	-1.39235 	-1.52810 	-1.52995 	-1.49755 	-1.47875 	-1.69480 	-1.27640 
-2.18595 	-1.63890 	-1.61690 	-2.60995 	-2.26675 	-2.01440 	-1.75250 	-2.46185 	-1.87455 	-1.61660 	-2.23535 	-1.80855 	-1.69535 	-1.88775 	-1.02995 	-1.11815 	-1.43035 	-1.92280 	-0.81875 	-1.25485 	-1.34995 	-1.49410 	-1.49060 	-1.46425 	-1.43910 	-1.66280 	-1.26645 
-2.10160 	-1.53050 	-1.53045 	-2.51650 	-2.19710 	-1.91450 	-1.65730 	-2.37340 	-1.82200 	-1.50745 	-2.14710 	-1.71615 	-1.56410 	-1.83915 	-0.96960 	-1.05625 	-1.32730 	-1.88320 	-0.77790 	-1.21865 	-1.30720 	-1.45435 	-1.45065 	-1.43025 	-1.39580 	-1.63225 	-1.25850 
-2.01865 	-1.42925 	-1.44940 	-2.42570 	-2.12710 	-1.81000 	-1.56670 	-2.28980 	-1.77100 	-1.39715 	-2.06375 	-1.62765 	-1.43195 	-1.78410 	-0.91560 	-1.00205 	-1.23235 	-1.82480 	-0.74255 	-1.18620 	-1.26465 	-1.41000 	-1.41095 	-1.39605 	-1.34945 	-1.60355 	-1.25320 
-1.93875 	-1.33945 	-1.37550 	-2.33875 	-2.05845 	-1.70335 	-1.48220 	-2.21150 	-1.72205 	-1.28635 	-1.98675 	-1.54470 	-1.30040 	-1.72345 	-0.86935 	-0.95725 	-1.14780 	-1.75035 	-0.71360 	-1.15880 	-1.22340 	-1.36235 	-1.37245 	-1.36240 	-1.30110 	-1.57740 	-1.25150 
-1.86395 	-1.26510 	-1.31045 	-2.25720 	-1.99355 	-1.59795 	-1.40505 	-2.13890 	-1.67640 	-1.17685 	-1.91775 	-1.46935 	-1.17190 	-1.65860 	-0.83225 	-0.92330 	-1.07550 	-1.66340 	-0.69195 	-1.13740 	-1.18435 	-1.31340 	-1.33610 	-1.33020 	-1.25230 	-1.55450 	-1.25385 
-1.79630 	-1.20915 	-1.25595 	-2.18255 	-1.93455 	-1.49790 	-1.33675 	-2.07245 	-1.63530 	-1.07145 	-1.85795 	-1.40310 	-1.04985 	-1.59145 	-0.80540 	-0.90140 	-1.01675 	-1.56815 	-0.67835 	-1.12305 	-1.14855 	-1.26500 	-1.30330 	-1.30045 	-1.20465 	-1.53565 	-1.26050 
-1.73805 	-1.17380 	-1.21315 	-2.11615 	-1.88310 	-1.40690 	-1.27810 	-2.01275 	-1.60025 	-0.97350 	-1.80845 	-1.34750 	-0.93790 	-1.52415 	-0.78965 	-0.89220 	-0.97220 	-1.46845 	-0.67335 	-1.11645 	-1.11695 	-1.21890 	-1.27495 	-1.27400 	-1.16000 	-1.52130 	-1.27140 
-1.69110 	-1.15955 	-1.18290 	-2.05890 	-1.84015 	-1.32795 	-1.23000 	-1.95995 	-1.57190 	-0.88625 	-1.77010 	-1.30330 	-0.83990 	-1.45895 	-0.78530 	-0.89560 	-0.94185 	-1.36825 	-0.67725 	-1.11780 	-1.09020 	-1.17630 	-1.25180 	-1.25125 	-1.11960 	-1.51145 	-1.28575 
-1.65700 	-1.16600 	-1.16550 	-2.01120 	-1.80580 	-1.26285 	-1.19270 	-1.91445 	-1.55030 	-0.81240 	-1.74310 	-1.27080 	-0.75915 	-1.39750 	-0.79230 	-0.91095 	-0.92525 	-1.27085 	-0.68995 	-1.12700 	-1.06830 	-1.13810 	-1.23405 	-1.23230 	-1.08430 	-1.50550 	-1.30230 
-1.63720 	-1.19120 	-1.16070 	-1.97335 	-1.77945 	-1.21235 	-1.16630 	-1.87655 	-1.53460 	-0.75410 	-1.72735 	-1.25025 	-0.69830 	-1.34110 	-0.81010 	-0.93700 	-0.92145 	-1.17855 	-0.71090 	-1.14355 	-1.05135 	-1.10445 	-1.22165 	-1.21670 	-1.05425 	-1.50265 	-1.31945 
-1.63225 	-1.23250 	-1.16810 	-1.94520 	-1.76045 	-1.17630 	-1.15075 	-1.84655 	-1.52335 	-0.71250 	-1.72265 	-1.24170 	-0.65930 	-1.29010 	-0.83805 	-0.97235 	-0.92935 	-1.09280 	-0.73940 	-1.16660 	-1.03900 	-1.07525 	-1.21415 	-1.20385 	-1.02915 	-1.50155 	-1.33580 
-1.64235 	-1.28640 	-1.18680 	-1.92655 	-1.74800 	-1.15410 	-1.14570 	-1.82490 	-1.51475 	-0.68830 	-1.72835 	-1.24485 	-0.64245 	-1.24460 	-0.87520 	-1.01550 	-0.94760 	-1.01430 	-0.77455 	-1.19530 	-1.03115 	-1.05010 	-1.21070 	-1.19285 	-1.00815 	-1.50125 	-1.35005 
-1.66680 	-1.34915 	-1.21575 	-1.91690 	-1.74115 	-1.14495 	-1.15045 	-1.81160 	-1.50710 	-0.68150 	-1.74370 	-1.25935 	-0.64705 	-1.20460 	-0.92055 	-1.06490 	-0.97495 	-0.94315 	-0.81535 	-1.22875 	-1.02765 	-1.02870 	-1.21060 	-1.18285 	-0.99030 	-1.50080 	-1.36165 
-1.70440 	-1.41710 	-1.25345 	-1.91570 	-1.73925 	-1.14770 	-1.16430 	-1.80655 	-1.49895 	-0.69170 	-1.76770 	-1.28445 	-0.67145 	-1.17030 	-0.97290 	-1.11915 	-1.01000 	-0.87975 	-0.86090 	-1.26610 	-1.02840 	-1.01085 	-1.21295 	-1.17310 	-0.97460 	-1.49970 	-1.37045 
-1.75335 	-1.48680 	-1.29865 	-1.92220 	-1.74180 	-1.16115 	-1.18630 	-1.80940 	-1.48965 	-0.71800 	-1.79940 	-1.31935 	-0.71325 	-1.14240 	-1.03110 	-1.17695 	-1.05150 	-0.82490 	-0.91015 	-1.30655 	-1.03340 	-0.99670 	-1.21700 	-1.16295 	-0.96015 	-1.49785 	-1.37670 
-1.81155 	-1.55565 	-1.34975 	-1.93575 	-1.74810 	-1.18400 	-1.21535 	-1.81970 	-1.47915 	-0.75900 	-1.83780 	-1.36295 	-0.77000 	-1.12240 	-1.09415 	-1.23735 	-1.09835 	-0.78030 	-0.96235 	-1.34940 	-1.04260 	-0.98660 	-1.22210 	-1.15205 	-0.94635 	-1.49545 	-1.38090 
-1.87655 	-1.62180 	-1.40530 	-1.95540 	-1.75750 	-1.21515 	-1.25020 	-1.83670 	-1.46790 	-0.81300 	-1.88180 	-1.41400 	-0.83900 	-1.11185 	-1.16085 	-1.29920 	-1.14905 	-0.74800 	-1.01680 	-1.39395 	-1.05550 	-0.98065 	-1.22745 	-1.14020 	-0.93255 	-1.49275 	-1.38335 
-1.94590 	-1.68425 	-1.46380 	-1.98030 	-1.76905 	-1.25310 	-1.28945 	-1.85935 	-1.45630 	-0.87770 	-1.93020 	-1.47060 	-0.91735 	-1.11265 	-1.22975 	-1.36130 	-1.20170 	-0.73035 	-1.07240 	-1.43925 	-1.07120 	-0.97845 	-1.23230 	-1.12690 	-0.91785 	-1.48990 	-1.38410 
-2.01720 	-1.74260 	-1.52360 	-2.00950 	-1.78185 	-1.29630 	-1.33145 	-1.88645 	-1.44515 	-0.95045 	-1.98160 	-1.53030 	-1.00185 	-1.12630 	-1.29925 	-1.42210 	-1.25400 	-0.72925 	-1.12780 	-1.48405 	-1.08815 	-0.97885 	-1.23555 	-1.11140 	-0.90125 	-1.48650 	-1.38270 
-2.08785 	-1.79730 	-1.58320 	-2.04175 	-1.79480 	-1.34265 	-1.37445 	-1.91630 	-1.43495 	-1.02820 	-2.03430 	-1.59020 	-1.08920 	-1.15405 	-1.36755 	-1.47985 	-1.30320 	-0.74580 	-1.18140 	-1.52675 	-1.10430 	-0.97995 	-1.23595 	-1.09295 	-0.88175 	-1.48200 	-1.37860 
-2.15575 	-1.84890 	-1.64090 	-2.07585 	-1.80715 	-1.39015 	-1.41660 	-1.94735 	-1.42625 	-1.10780 	-2.08640 	-1.64700 	-1.17605 	-1.19710 	-1.43240 	-1.53250 	-1.34630 	-0.78050 	-1.23145 	-1.56545 	-1.11730 	-0.97975 	-1.23210 	-1.07055 	-0.85835 	-1.47540 	-1.37105 
-2.21905 	-1.89865 	-1.69525 	-2.11060 	-1.81815 	-1.43665 	-1.45615 	-1.97775 	-1.41950 	-1.18675 	-2.13600 	-1.69740 	-1.25900 	-1.25615 	-1.49205 	-1.57800 	-1.38085 	-0.83300 	-1.27590 	-1.59840 	-1.12500 	-0.97645 	-1.22280 	-1.04330 	-0.83050 	-1.46535 	-1.35930 
-2.27650 	-1.94775 	-1.74520 	-2.14490 	-1.82760 	-1.48060 	-1.49175 	-2.00605 	-1.41525 	-1.26280 	-2.18140 	-1.73865 	-1.33505 	-1.33150 	-1.54465 	-1.61475 	-1.40465 	-0.90225 	-1.31335 	-1.62400 	-1.12560 	-0.96825 	-1.20705 	-1.01065 	-0.79785 	-1.45070 	-1.34270 
-2.32715 	-1.99760 	-1.78995 	-2.17800 	-1.83570 	-1.52075 	-1.52255 	-2.03115 	-1.41425 	-1.33450 	-2.22135 	-1.76855 	-1.40195 	-1.42280 	-1.58930 	-1.64145 	-1.41615 	-0.98605 	-1.34265 	-1.64110 	-1.11785 	-0.95420 	-1.18445 	-0.97230 	-0.76040 	-1.43020 	-1.32055 
-2.37115 	-2.04945 	-1.82945 	-2.20955 	-1.84310 	-1.55655 	-1.54840 	-2.05265 	-1.41730 	-1.40090 	-2.25550 	-1.78625 	-1.45795 	-1.52845 	-1.62555 	-1.65775 	-1.41450 	-1.08130 	-1.36350 	-1.64940 	-1.10115 	-0.93355 	-1.15475 	-0.92835 	-0.71830 	-1.40300 	-1.29235 
-2.40880 	-2.10450 	-1.86415 	-2.23980 	-1.85120 	-1.58795 	-1.57000 	-2.07095 	-1.42510 	-1.46100 	-2.28395 	-1.79195 	-1.50245 	-1.64570 	-1.65395 	-1.66415 	-1.39950 	-1.18325 	-1.37610 	-1.64910 	-1.07590 	-0.90635 	-1.11860 	-0.87925 	-0.67200 	-1.36870 	-1.25760 
-2.44130 	-2.16340 	-1.89505 	-2.26960 	-1.86155 	-1.61525 	-1.58835 	-2.08725 	-1.43830 	-1.51415 	-2.30790 	-1.78735 	-1.53595 	-1.77105 	-1.67585 	-1.66195 	-1.37190 	-1.28640 	-1.38175 	-1.64120 	-1.04295 	-0.87275 	-1.07715 	-0.82580 	-0.62180 	-1.32710 	-1.21600 
-2.46990 	-2.22645 	-1.92370 	-2.30005 	-1.87575 	-1.63915 	-1.60525 	-2.10315 	-1.45710 	-1.55950 	-2.32890 	-1.77520 	-1.55990 	-1.90005 	-1.69295 	-1.65335 	-1.33345 	-1.38415 	-1.38205 	-1.62750 	-1.00395 	-0.83345 	-1.03175 	-0.76925 	-0.56850 	-1.27895 	-1.16770 
-2.49600 	-2.29310 	-1.95155 	-2.33220 	-1.89500 	-1.66040 	-1.62245 	-2.12040 	-1.48095 	-1.59625 	-2.34875 	-1.75875 	-1.57625 	-2.02750 	-1.70775 	-1.64100 	-1.28655 	-1.46980 	-1.37900 	-1.61005 	-0.96090 	-0.78930 	-0.98430 	-0.71115 	-0.51295 	-1.22500 	-1.11310 
-2.52060 	-2.36175 	-1.97955 	-2.36655 	-1.91955 	-1.67970 	-1.64145 	-2.14035 	-1.50860 	-1.62380 	-2.36930 	-1.74140 	-1.58690 	-2.14785 	-1.72235 	-1.62785 	-1.23460 	-1.53740 	-1.37475 	-1.59125 	-0.91635 	-0.74140 	-0.93680 	-0.65325 	-0.45645 	-1.16690 	-1.05345 
-2.54455 	-2.43000 	-2.00825 	-2.40270 	-1.94825 	-1.69760 	-1.66300 	-2.16360 	-1.53835 	-1.64155 	-2.39195 	-1.72635 	-1.59365 	-2.25540 	-1.73885 	-1.61680 	-1.18095 	-1.58230 	-1.37140 	-1.57330 	-0.87295 	-0.69115 	-0.89105 	-0.59760 	-0.40035 	-1.10650 	-0.99030 
-2.56775 	-2.49465 	-2.03745 	-2.43955 	-1.97875 	-1.71430 	-1.68740 	-2.19005 	-1.56755 	-1.64965 	-2.41770 	-1.71585 	-1.59770 	-2.34485 	-1.75895 	-1.61030 	-1.12920 	-1.60195 	-1.37060 	-1.55825 	-0.83320 	-0.64005 	-0.84880 	-0.54595 	-0.34610 	-1.04570 	-0.92535 
-2.58965 	-2.55180 	-2.06610 	-2.47510 	-2.00755 	-1.72955 	-1.71425 	-2.21870 	-1.59340 	-1.64855 	-2.44695 	-1.71145 	-1.59970 	-2.41150 	-1.78350 	-1.61015 	-1.08205 	-1.59580 	-1.37360 	-1.54745 	-0.79895 	-0.58940 	-0.81125 	-0.49980 	-0.29480 	-0.98620 	-0.86055 
-2.60910 	-2.59785 	-2.09275 	-2.50685 	-2.03050 	-1.74275 	-1.74235 	-2.24820 	-1.61265 	-1.63950 	-2.47940 	-1.71390 	-1.60010 	-2.45195 	-1.81255 	-1.61710 	-1.04140 	-1.56485 	-1.38075 	-1.54165 	-0.77135 	-0.54010 	-0.77885 	-0.45995 	-0.24700 	-0.92940 	-0.79750 
-2.62480 	-2.62965 	-2.11565 	-2.53245 	-2.04355 	-1.75300 	-1.77055 	-2.27685 	-1.62240 	-1.62420 	-2.51445 	-1.72295 	-1.59915 	-2.46405 	-1.84585 	-1.63110 	-1.00815 	-1.51135 	-1.39190 	-1.54075 	-0.75045 	-0.49270 	-0.75150 	-0.42655 	-0.20305 	-0.87605 	-0.73745 
-2.63570 	-2.64515 	-2.13345 	-2.55030 	-2.04400 	-1.75960 	-1.79780 	-2.30320 	-1.62065 	-1.60445 	-2.55140 	-1.73800 	-1.59725 	-2.44675 	-1.88235 	-1.65150 	-0.98260 	-1.43800 	-1.40645 	-1.54430 	-0.73585 	-0.44720 	-0.72850 	-0.39945 	-0.16270 	-0.82665 	-0.68145 
-2.64100 	-2.64395 	-2.14530 	-2.55960 	-2.03065 	-1.76210 	-1.82335 	-2.32655 	-1.60665 	-1.58225 	-2.58935 	-1.75830 	-1.59510 	-2.39990 	-1.92125 	-1.67715 	-0.96445 	-1.34760 	-1.42335 	-1.55160 	-0.72670 	-0.40380 	-0.70905 	-0.37805 	-0.12575 	-0.78155 	-0.63005 
-2.64090 	-2.62750 	-2.15135 	-2.56095 	-2.00435 	-1.76075 	-1.84720 	-2.34655 	-1.58105 	-1.55935 	-2.62790 	-1.78295 	-1.59345 	-2.32440 	-1.96160 	-1.70690 	-0.95320 	-1.24285 	-1.44175 	-1.56190 	-0.72175 	-0.36270 	-0.69230 	-0.36190 	-0.09220 	-0.74080 	-0.58380 
-2.63615 	-2.59870 	-2.15250 	-2.55590 	-1.96775 	-1.75680 	-1.86970 	-2.36365 	-1.54600 	-1.53800 	-2.66655 	-1.81105 	-1.59360 	-2.22170 	-2.00265 	-1.73945 	-0.94820 	-1.12670 	-1.46075 	-1.57450 	-0.72010 	-0.32435 	-0.67770 	-0.35045 	-0.06195 	-0.70465 	-0.54265 
-2.62860 	-2.56220 	-2.15045 	-2.54700 	-1.92505 	-1.75250 	-1.89190 	-2.37885 	-1.50490 	-1.52080 	-2.70555 	-1.84185 	-1.59690 	-2.09465 	-2.04430 	-1.77380 	-0.94880 	-1.00270 	-1.47995 	-1.58925 	-0.72090 	-0.28965 	-0.66505 	-0.34355 	-0.03570 	-0.67355 	-0.50685 
-2.62050 	-2.52360 	-2.14770 	-2.53740 	-1.88100 	-1.75055 	-1.91525 	-2.39355 	-1.46175 	-1.51070 	-2.74525 	-1.87470 	-1.60485 	-1.94750 	-2.08650 	-1.80945 	-0.95485 	-0.87515 	-1.49945 	-1.60625 	-0.72375 	-0.25960 	-0.65460 	-0.34135 	-0.01425 	-0.64805 	-0.47640 
-2.61450 	-2.48880 	-2.14710 	-2.53035 	-1.84065 	-1.75350 	-1.94145 	-2.40945 	-1.42090 	-1.51010 	-2.78640 	-1.90925 	-1.61885 	-1.78580 	-2.12970 	-1.84600 	-0.96610 	-0.74965 	-1.51955 	-1.62590 	-0.72875 	-0.23540 	-0.64695 	-0.34420 	0.00110 	-0.62880 	-0.45115 
-2.61295 	-2.46350 	-2.15145 	-2.52865 	-1.80815 	-1.76300 	-1.97190 	-2.42830 	-1.38645 	-1.52010 	-2.82970 	-1.94520 	-1.63975 	-1.61620 	-2.17440 	-1.88350 	-0.98275 	-0.63185 	-1.54090 	-1.64865 	-0.73620 	-0.21800 	-0.64305 	-0.35280 	0.00885 	-0.61640 	-0.43110 
-2.61755 	-2.45230 	-2.16300 	-2.53455 	-1.78650 	-1.77925 	-2.00800 	-2.45170 	-1.36150 	-1.53995 	-2.87570 	-1.98270 	-1.66800 	-1.44565 	-2.22085 	-1.92195 	-1.00505 	-0.52810 	-1.56395 	-1.67510 	-0.74680 	-0.20820 	-0.64360 	-0.36765 	0.00795 	-0.61105 	-0.41565 
-2.62935 	-2.45855 	-2.18360 	-2.54945 	-1.77785 	-1.80150 	-2.05050 	-2.48090 	-1.34880 	-1.56750 	-2.92475 	-2.02190 	-1.70325 	-1.28155 	-2.26925 	-1.96145 	-1.03330 	-0.44410 	-1.58915 	-1.70555 	-0.76125 	-0.20655 	-0.64950 	-0.38930 	-0.00275 	-0.61295 	-0.40465 
-2.64885 	-2.48400 	-2.21440 	-2.57440 	-1.78340 	-1.82820 	-2.09975 	-2.51700 	-1.35000 	-1.59960 	-2.97700 	-2.06320 	-1.74495 	-1.13080 	-2.31945 	-2.00215 	-1.06820 	-0.38480 	-1.61670 	-1.74030 	-0.78040 	-0.21355 	-0.66145 	-0.41820 	-0.02405 	-0.62205 	-0.39755 
-2.67590 	-2.52910 	-2.25600 	-2.60985 	-1.80390 	-1.85785 	-2.15585 	-2.56080 	-1.36630 	-1.63350 	-3.03250 	-2.10705 	-1.79220 	-0.99995 	-2.37125 	-2.04400 	-1.11045 	-0.35395 	-1.64675 	-1.77945 	-0.80535 	-0.22980 	-0.68030 	-0.45480 	-0.05650 	-0.63840 	-0.39450 
-2.71035 	-2.59270 	-2.30830 	-2.65580 	-1.83950 	-1.88945 	-2.21845 	-2.61255 	-1.39820 	-1.66725 	-3.09095 	-2.15390 	-1.84410 	-0.89425 	-2.42420 	-2.08720 	-1.16070 	-0.35320 	-1.67920 	-1.82325 	-0.83700 	-0.25590 	-0.70655 	-0.49915 	-0.10025 	-0.66200 	-0.39535 
-2.75150 	-2.67245 	-2.37080 	-2.71195 	-1.88990 	-1.92205 	-2.28710 	-2.67230 	-1.44580 	-1.70005 	-3.15180 	-2.20385 	-1.89975 	-0.81735 	-2.47780 	-2.13150 	-1.21920 	-0.38215 	-1.71405 	-1.87155 	-0.87615 	-0.29215 	-0.74070 	-0.55155 	-0.15555 	-0.69265 	-0.40035 
-2.79890 	-2.76505 	-2.44255 	-2.77740 	-1.95405 	-1.95565 	-2.36075 	-2.73945 	-1.50865 	-1.73185 	-3.21460 	-2.25700 	-1.95835 	-0.77105 	-2.53145 	-2.17675 	-1.28595 	-0.43745 	-1.75100 	-1.92415 	-0.92335 	-0.33850 	-0.78290 	-0.61160 	-0.22195 	-0.73040 	-0.40985 
-2.85190 	-2.86675 	-2.52245 	-2.85115 	-2.03050 	-1.99045 	-2.43860 	-2.81310 	-1.58585 	-1.76340 	-3.27880 	-2.31330 	-2.01940 	-0.75525 	-2.58475 	-2.22280 	-1.36035 	-0.51420 	-1.79000 	-1.98075 	-0.97870 	-0.39470 	-0.83325 	-0.67915 	-0.29895 	-0.77500 	-0.42440 
-2.90985 	-2.97290 	-2.60890 	-2.93190 	-2.11720 	-2.02700 	-2.51955 	-2.89225 	-1.67610 	-1.79515 	-3.34380 	-2.37270 	-2.08225 	-0.76785 	-2.63690 	-2.26950 	-1.44175 	-0.60550 	-1.83065 	-2.04070 	-1.04195 	-0.45955 	-0.89110 	-0.75350 	-0.38555 	-0.82610 	-0.44490 
-2.97190 	-3.07895 	-2.70015 	-3.01770 	-2.21145 	-2.06575 	-2.60230 	-2.97535 	-1.77715 	-1.82745 	-3.40875 	-2.43505 	-2.14630 	-0.80540 	-2.68725 	-2.31650 	-1.52875 	-0.70420 	-1.87235 	-2.10310 	-1.11210 	-0.53130 	-0.95580 	-0.83375 	-0.48045 	-0.88320 	-0.47190 
-3.03665 	-3.18020 	-2.79365 	-3.10655 	-2.31020 	-2.10675 	-2.68515 	-3.06040 	-1.88620 	-1.86015 	-3.47245 	-2.49960 	-2.21070 	-0.86375 	-2.73445 	-2.36295 	-1.61965 	-0.80335 	-1.91405 	-2.16650 	-1.18745 	-0.60775 	-1.02570 	-0.91825 	-0.58155 	-0.94535 	-0.50575 
-3.10210 	-3.27195 	-2.88670 	-3.19575 	-2.40980 	-2.14935 	-2.76575 	-3.14490 	-1.99985 	-1.89255 	-3.53300 	-2.56480 	-2.27390 	-0.93805 	-2.77670 	-2.40750 	-1.71210 	-0.89705 	-1.95390 	-2.22850 	-1.26540 	-0.68615 	-1.09870 	-1.00505 	-0.68635 	-1.01110 	-0.54620 
-3.16630 	-3.35030 	-2.97600 	-3.28250 	-2.50685 	-2.19235 	-2.84155 	-3.22595 	-2.11420 	-1.92345 	-3.58830 	-2.62865 	-2.33395 	-1.02360 	-2.81175 	-2.44815 	-1.80305 	-0.98115 	-1.98970 	-2.28665 	-1.34290 	-0.76370 	-1.17210 	-1.09170 	-0.79215 	-1.07855 	-0.59275 
-3.22695 	-3.41245 	-3.05860 	-3.36405 	-2.59810 	-2.23435 	-2.91015 	-3.30100 	-2.22550 	-1.95210 	-3.63590 	-2.68870 	-2.38820 	-1.11660 	-2.83750 	-2.48280 	-1.88945 	-1.05365 	-2.01910 	-2.33815 	-1.41660 	-0.83790 	-1.24310 	-1.17550 	-0.89590 	-1.14590 	-0.64445 
-3.28235 	-3.45715 	-3.13225 	-3.43835 	-2.68135 	-2.27375 	-2.96955 	-3.36780 	-2.33045 	-1.97790 	-3.67400 	-2.74300 	-2.43440 	-1.21430 	-2.85215 	-2.50960 	-1.96830 	-1.11460 	-2.04005 	-2.38090 	-1.48360 	-0.90700 	-1.30915 	-1.25420 	-0.99525 	-1.21135 	-0.70035 
-3.33150 	-3.48520 	-3.19550 	-3.50430 	-2.75525 	-2.30965 	-3.01880 	-3.42530 	-2.42650 	-2.00115 	-3.70160 	-2.79020 	-2.47055 	-1.31535 	-2.85475 	-2.52745 	-2.03740 	-1.16625 	-2.05145 	-2.41345 	-1.54185 	-0.97025 	-1.36845 	-1.32605 	-1.08825 	-1.27370 	-0.75965 
-3.37420 	-3.49925 	-3.24845 	-3.56190 	-2.81975 	-2.34170 	-3.05800 	-3.47340 	-2.51215 	-2.02310 	-3.71875 	-2.83040 	-2.49580 	-1.41930 	-2.84550 	-2.53615 	-2.09545 	-1.21180 	-2.05290 	-2.43535 	-1.59050 	-1.02775 	-1.41965 	-1.39005 	-1.17380 	-1.33195 	-0.82145 
-3.41115 	-3.50370 	-3.29240 	-3.61230 	-2.87645 	-2.37080 	-3.08855 	-3.51360 	-2.58695 	-2.04555 	-3.72675 	-2.86490 	-2.51035 	-1.52620 	-2.82555 	-2.53660 	-2.14270 	-1.25515 	-2.04525 	-2.44740 	-1.62975 	-1.08070 	-1.46250 	-1.44585 	-1.25130 	-1.38580 	-0.88500 
-3.44370 	-3.50385 	-3.32955 	-3.65770 	-2.92805 	-2.39860 	-3.11255 	-3.54790 	-2.65135 	-2.07055 	-3.72775 	-2.89620 	-2.51540 	-1.63585 	-2.79690 	-2.53060 	-2.18015 	-1.29935 	-2.02995 	-2.45085 	-1.66080 	-1.13050 	-1.49690 	-1.49375 	-1.32070 	-1.43490 	-0.94925 
-3.47350 	-3.50535 	-3.36295 	-3.70060 	-2.97770 	-2.42730 	-3.13260 	-3.57885 	-2.70640 	-2.09950 	-3.72435 	-2.92710 	-2.51300 	-1.74740 	-2.76210 	-2.52020 	-2.20965 	-1.34680 	-2.00885 	-2.44740 	-1.68520 	-1.17855 	-1.52335 	-1.53395 	-1.38200 	-1.47905 	-1.01285 
-3.50200 	-3.51350 	-3.39535 	-3.74375 	-3.02855 	-2.45870 	-3.15125 	-3.60875 	-2.75350 	-2.13230 	-3.71915 	-2.96020 	-2.50535 	-1.85880 	-2.72345 	-2.50765 	-2.23325 	-1.39825 	-1.98370 	-2.43880 	-1.70470 	-1.22565 	-1.54230 	-1.56690 	-1.43520 	-1.51780 	-1.07425 
-3.53045 	-3.53240 	-3.42915 	-3.78910 	-3.08300 	-2.49400 	-3.17065 	-3.63930 	-2.79395 	-2.16755 	-3.71430 	-2.99760 	-2.49450 	-1.96750 	-2.68310 	-2.49475 	-2.25290 	-1.45385 	-1.95630 	-2.42650 	-1.72075 	-1.27220 	-1.55405 	-1.59295 	-1.48065 	-1.55095 	-1.13185 
-3.55955 	-3.56465 	-3.46610 	-3.83815 	-3.14255 	-2.53360 	-3.19225 	-3.67155 	-2.82905 	-2.20260 	-3.71135 	-3.04005 	-2.48225 	-2.07030 	-2.64265 	-2.48285 	-2.27005 	-1.51265 	-1.92765 	-2.41125 	-1.73455 	-1.31785 	-1.55900 	-1.61210 	-1.51830 	-1.57785 	-1.18395 
-3.58945 	-3.61125 	-3.50695 	-3.89160 	-3.20775 	-2.57725 	-3.21685 	-3.70575 	-2.86020 	-2.23480 	-3.71085 	-3.08745 	-2.46965 	-2.16415 	-2.60290 	-2.47265 	-2.28565 	-1.57355 	-1.89830 	-2.39370 	-1.74675 	-1.36215 	-1.55735 	-1.62445 	-1.54840 	-1.59790 	-1.22895 
-3.62005 	-3.67150 	-3.55185 	-3.94955 	-3.27880 	-2.62425 	-3.24465 	-3.74185 	-2.88885 	-2.26235 	-3.71295 	-3.13850 	-2.45755 	-2.24665 	-2.56435 	-2.46430 	-2.30020 	-1.63510 	-1.86860 	-2.37380 	-1.75740 	-1.40425 	-1.54940 	-1.63025 	-1.57130 	-1.61075 	-1.26555 
-3.65080 	-3.74310 	-3.60040 	-4.01170 	-3.35515 	-2.67415 	-3.27540 	-3.77940 	-2.91685 	-2.28535 	-3.71705 	-3.19145 	-2.44675 	-2.31665 	-2.52705 	-2.45750 	-2.31380 	-1.69610 	-1.83855 	-2.35150 	-1.76655 	-1.44345 	-1.53535 	-1.62955 	-1.58745 	-1.61610 	-1.29290 
-3.68125 	-3.82295 	-3.65185 	-4.07755 	-3.43630 	-2.72645 	-3.30870 	-3.81770 	-2.94610 	-2.30585 	-3.72265 	-3.24430 	-2.43805 	-2.37445 	-2.49080 	-2.45170 	-2.32655 	-1.75570 	-1.80790 	-2.32660 	-1.77355 	-1.47940 	-1.51590 	-1.62295 	-1.59735 	-1.61415 	-1.31050 
-3.71090 	-3.90695 	-3.70500 	-4.14610 	-3.52095 	-2.78100 	-3.34405 	-3.85610 	-2.97820 	-2.32700 	-3.72900 	-3.29485 	-2.43245 	-2.42190 	-2.45545 	-2.44620 	-2.33825 	-1.81310 	-1.77655 	-2.29885 	-1.77805 	-1.51175 	-1.49175 	-1.61105 	-1.60165 	-1.60525 	-1.31875 
-3.73895 	-3.99055 	-3.75860 	-4.21600 	-3.60750 	-2.83745 	-3.38050 	-3.89375 	-3.01400 	-2.35220 	-3.73550 	-3.34125 	-2.43075 	-2.46195 	-2.42055 	-2.44010 	-2.34870 	-1.86785 	-1.74425 	-2.26810 	-1.77920 	-1.54050 	-1.46340 	-1.59450 	-1.60095 	-1.59020 	-1.31820 
-3.76490 	-4.06900 	-3.81105 	-4.28580 	-3.69370 	-2.89470 	-3.41720 	-3.92975 	-3.05345 	-2.38340 	-3.74130 	-3.38175 	-2.43330 	-2.49780 	-2.38575 	-2.43250 	-2.35730 	-1.91935 	-1.71085 	-2.23415 	-1.77625 	-1.56550 	-1.43160 	-1.57380 	-1.59540 	-1.56995 	-1.30990 
-3.78790 	-4.13775 	-3.86060 	-4.35345 	-3.77705 	-2.95125 	-3.45295 	-3.96320 	-3.09575 	-2.42075 	-3.74570 	-3.41505 	-2.44000 	-2.53245 	-2.35050 	-2.42250 	-2.36355 	-1.96690 	-1.67585 	-2.19685 	-1.76845 	-1.58655 	-1.39665 	-1.54920 	-1.58520 	-1.54520 	-1.29500 
-3.80710 	-4.19285 	-3.90550 	-4.41685 	-3.85480 	-3.00500 	-3.48660 	-3.99325 	-3.13915 	-2.46225 	-3.74820 	-3.44015 	-2.45015 	-2.56755 	-2.31425 	-2.40915 	-2.36695 	-2.00970 	-1.63910 	-2.15600 	-1.75510 	-1.60330 	-1.35870 	-1.52070 	-1.57025 	-1.51680 	-1.27470 
-3.82155 	-4.23110 	-3.94400 	-4.47390 	-3.92410 	-3.05335 	-3.51680 	-4.01905 	-3.18165 	-2.50445 	-3.74800 	-3.45645 	-2.46255 	-2.60345 	-2.27625 	-2.39190 	-2.36715 	-2.04665 	-1.60015 	-2.11155 	-1.73565 	-1.61510 	-1.31775 	-1.48825 	-1.55025 	-1.48530 	-1.25015 
-3.83035 	-4.25070 	-3.97465 	-4.52225 	-3.98235 	-3.09390 	-3.54235 	-4.03965 	-3.22075 	-2.54320 	-3.74460 	-3.46345 	-2.47555 	-2.63900 	-2.23625 	-2.37025 	-2.36365 	-2.07650 	-1.55890 	-2.06355 	-1.70985 	-1.62105 	-1.27355 	-1.45140 	-1.52480 	-1.45105 	-1.22230 
-3.83280 	-4.25085 	-3.99630 	-4.55990 	-4.02735 	-3.12465 	-3.56220 	-4.05390 	-3.25380 	-2.57460 	-3.73735 	-3.46085 	-2.48700 	-2.67160 	-2.19360 	-2.34385 	-2.35610 	-2.09765 	-1.51505 	-2.01195 	-1.67735 	-1.62030 	-1.22590 	-1.40980 	-1.49350 	-1.41405 	-1.19160 
-3.82845 	-4.23250 	-4.00815 	-4.58515 	-4.05745 	-3.14480 	-3.57560 	-4.06085 	-3.27890 	-2.59575 	-3.72600 	-3.44835 	-2.49510 	-2.69765 	-2.14805 	-2.31250 	-2.34405 	-2.10815 	-1.46855 	-1.95680 	-1.63790 	-1.61155 	-1.17430 	-1.36290 	-1.45560 	-1.37410 	-1.15800 
-3.81730 	-4.19810 	-4.01035 	-4.59740 	-4.07225 	-3.15435 	-3.58225 	-4.06000 	-3.29505 	-2.60510 	-3.71020 	-3.42605 	-2.49830 	-2.71330 	-2.09955 	-2.27620 	-2.32680 	-2.10580 	-1.41955 	-1.89840 	-1.59105 	-1.59380 	-1.11865 	-1.31030 	-1.41055 	-1.33060 	-1.12085 
-3.79985 	-4.15120 	-4.00380 	-4.59685 	-4.07245 	-3.15430 	-3.58255 	-4.05165 	-3.30260 	-2.60240 	-3.69045 	-3.39445 	-2.49620 	-2.71475 	-2.04840 	-2.23520 	-2.30390 	-2.08890 	-1.36860 	-1.83715 	-1.53690 	-1.56615 	-1.05875 	-1.25180 	-1.35785 	-1.28290 	-1.07935 
-3.77705 	-4.09660 	-3.99020 	-4.58495 	-4.05980 	-3.14630 	-3.57740 	-4.03715 	-3.30320 	-2.58840 	-3.66765 	-3.35490 	-2.48945 	-2.69950 	-1.99540 	-2.19005 	-2.27500 	-2.05640 	-1.31635 	-1.77400 	-1.47570 	-1.52830 	-0.99480 	-1.18760 	-1.29770 	-1.23055 	-1.03275 
-3.75020 	-4.03950 	-3.97175 	-4.56395 	-4.03680 	-3.13160 	-3.56860 	-4.01840 	-3.29930 	-2.56460 	-3.64315 	-3.30900 	-2.47985 	-2.66635 	-1.94165 	-2.14170 	-2.24000 	-2.00765 	-1.26405 	-1.70990 	-1.40820 	-1.48065 	-0.92755 	-1.11835 	-1.23060 	-1.17365 	-0.98090 
-3.72080 	-3.98485 	-3.95110 	-4.53650 	-4.00630 	-3.11150 	-3.55790 	-3.99810 	-3.29330 	-2.53285 	-3.61850 	-3.25925 	-2.46935 	-2.61570 	-1.88860 	-2.09125 	-2.19915 	-1.94320 	-1.21295 	-1.64635 	-1.33550 	-1.42390 	-0.85805 	-1.04515 	-1.15810 	-1.11260 	-0.92410 
-3.69025 	-3.93705 	-3.93075 	-4.50530 	-3.97105 	-3.08690 	-3.54710 	-3.97845 	-3.28725 	-2.49495 	-3.59530 	-3.20785 	-2.45995 	-2.54955 	-1.83770 	-2.03990 	-2.15290 	-1.86380 	-1.16455 	-1.58465 	-1.25905 	-1.35945 	-0.78770 	-0.96940 	-1.08220 	-1.04850 	-0.86355 
