[Subject]	
[Date]	05/30/2016
[Time]	17:35:24
[Channels]	27
[Rate]	1000.000000
[Type]	Average
[Points]	1351
[Xmin]	-100.00000
[Sweeps]	5047
[Accepted]	120
[Rejected]	4927
[Domain]	Time
[Rows]	Points																									
[Electrode Labels]																											
[FP2]	        [AF4]	        [F2]	        [F4]	        [F6]	        [F8]	        [FC2]	        [FC4]	        [FC6]	        [FT8]	        [C2]	        [C4]	        [C6]	        [T8]	        [CP2]	        [CP4]	        [CP6]	        [TP8]	        [P2]	        [P4]	        [P6]	        [P8]	        [PO4]	        [PO6]	        [PO8]	        [O2]	        [CB2]	
[Electrode XUnits]																											
[Default]	[Default]	[Default]	[Default]	[Default]	[Default]	[Default]	[Default]	[Default]	[Default]	[Default]	[Default]	[Default]	[Default]	[Default]	[Default]	[Default]	[Default]	[Default]	[Default]	[Default]	[Default]	[Default]	[Default]	[Default]	[Default]	[Default]	
[Electrode YUnits]																											
[Default]	[Default]	[Default]	[Default]	[Default]	[Default]	[Default]	[Default]	[Default]	[Default]	[Default]	[Default]	[Default]	[Default]	[Default]	[Default]	[Default]	[Default]	[Default]	[Default]	[Default]	[Default]	[Default]	[Default]	[Default]	[Default]	[Default]	
[Average Data]
0.53040 	0.84915 	0.91645 	0.62955 	0.59480 	0.16425 	0.76685 	0.60265 	0.60800 	0.34225 	0.70675 	0.68400 	0.53205 	0.15190 	0.89250 	0.71885 	0.57250 	0.24875 	0.71100 	0.72265 	0.71750 	0.58335 	0.53040 	0.69620 	0.52390 	0.29440 	0.19425 
0.58020 	0.89330 	0.96190 	0.66810 	0.62125 	0.19830 	0.80935 	0.62320 	0.62250 	0.37520 	0.72365 	0.67165 	0.51530 	0.22705 	0.88365 	0.70125 	0.55195 	0.32605 	0.69930 	0.69640 	0.67720 	0.55535 	0.49425 	0.65525 	0.47200 	0.25905 	0.16560 
0.62425 	0.92800 	0.99960 	0.70275 	0.64085 	0.23350 	0.84695 	0.64160 	0.63065 	0.40610 	0.73810 	0.65510 	0.49290 	0.30690 	0.87355 	0.68375 	0.53315 	0.40235 	0.68880 	0.67160 	0.63820 	0.52755 	0.46020 	0.61780 	0.42425 	0.22665 	0.13810 
0.66285 	0.95425 	1.02990 	0.73380 	0.65360 	0.26930 	0.87995 	0.65850 	0.63320 	0.43475 	0.75035 	0.63560 	0.46675 	0.38745 	0.86225 	0.66635 	0.51590 	0.47445 	0.67930 	0.64835 	0.60070 	0.49975 	0.42845 	0.58355 	0.38095 	0.19685 	0.11160 
0.69685 	0.97365 	1.05400 	0.76195 	0.66015 	0.30545 	0.90885 	0.67475 	0.63170 	0.46125 	0.76080 	0.61455 	0.43885 	0.46475 	0.85000 	0.64925 	0.50025 	0.53985 	0.67085 	0.62680 	0.56480 	0.47170 	0.39915 	0.55240 	0.34215 	0.16970 	0.08620 
0.72735 	0.98830 	1.07310 	0.78815 	0.66155 	0.34190 	0.93430 	0.69130 	0.62800 	0.48570 	0.77005 	0.59350 	0.41120 	0.53545 	0.83705 	0.63245 	0.48595 	0.59645 	0.66355 	0.60695 	0.53065 	0.44320 	0.37290 	0.52420 	0.30750 	0.14515 	0.06205 
0.75555 	1.00015 	1.08865 	0.81325 	0.65895 	0.37860 	0.95715 	0.70905 	0.62395 	0.50780 	0.77855 	0.57395 	0.38535 	0.59670 	0.82365 	0.61615 	0.47290 	0.64235 	0.65730 	0.58890 	0.49835 	0.41410 	0.34985 	0.49855 	0.27670 	0.12330 	0.03930 
0.78255 	1.01120 	1.10180 	0.83780 	0.65325 	0.41495 	0.97790 	0.72855 	0.62130 	0.52725 	0.78650 	0.55740 	0.36255 	0.64580 	0.81010 	0.60030 	0.46050 	0.67595 	0.65200 	0.57250 	0.46785 	0.38395 	0.33035 	0.47520 	0.24895 	0.10395 	0.01810 
0.80905 	1.02275 	1.11345 	0.86185 	0.64495 	0.45005 	0.99695 	0.75005 	0.62075 	0.54335 	0.79410 	0.54465 	0.34375 	0.68085 	0.79645 	0.58500 	0.44840 	0.69565 	0.64745 	0.55770 	0.43895 	0.35245 	0.31435 	0.45355 	0.22360 	0.08695 	-0.00165 
0.83550 	1.03565 	1.12390 	0.88490 	0.63395 	0.48220 	1.01430 	0.77310 	0.62205 	0.55530 	0.80100 	0.53635 	0.32950 	0.70015 	0.78265 	0.57020 	0.43570 	0.70030 	0.64330 	0.54410 	0.41140 	0.31925 	0.30185 	0.43310 	0.19970 	0.07200 	-0.02015 
0.86195 	1.05010 	1.13330 	0.90610 	0.62005 	0.50970 	1.02995 	0.79705 	0.62425 	0.56260 	0.80675 	0.53245 	0.31985 	0.70280 	0.76835 	0.55560 	0.42165 	0.68950 	0.63900 	0.53120 	0.38470 	0.28415 	0.29240 	0.41330 	0.17660 	0.05885 	-0.03725 
0.88825 	1.06580 	1.14130 	0.92455 	0.60305 	0.53105 	1.04330 	0.82070 	0.62550 	0.56500 	0.81055 	0.53255 	0.31465 	0.68880 	0.75325 	0.54085 	0.40525 	0.66360 	0.63400 	0.51830 	0.35820 	0.24690 	0.28550 	0.39355 	0.15370 	0.04715 	-0.05310 
0.91400 	1.08195 	1.14740 	0.93905 	0.58275 	0.54515 	1.05385 	0.84280 	0.62385 	0.56215 	0.81170 	0.53555 	0.31325 	0.65870 	0.73665 	0.52545 	0.38535 	0.62390 	0.62755 	0.50455 	0.33105 	0.20750 	0.28045 	0.37325 	0.13035 	0.03660 	-0.06770 
0.93860 	1.09740 	1.15095 	0.94845 	0.55895 	0.55110 	1.06065 	0.86180 	0.61720 	0.55335 	0.80920 	0.54005 	0.31470 	0.61390 	0.71780 	0.50835 	0.36070 	0.57225 	0.61870 	0.48900 	0.30220 	0.16585 	0.27610 	0.35155 	0.10590 	0.02675 	-0.08130 
0.96135 	1.11060 	1.15105 	0.95160 	0.53175 	0.54860 	1.06290 	0.87600 	0.60385 	0.53770 	0.80190 	0.54430 	0.31750 	0.55620 	0.69575 	0.48860 	0.33010 	0.51075 	0.60650 	0.47040 	0.27065 	0.12190 	0.27105 	0.32770 	0.07965 	0.01690 	-0.09445 
0.98130 	1.11990 	1.14685 	0.94745 	0.50110 	0.53740 	1.05950 	0.88390 	0.58280 	0.51400 	0.78900 	0.54645 	0.32030 	0.48780 	0.66970 	0.46530 	0.29270 	0.44185 	0.59000 	0.44785 	0.23545 	0.07585 	0.26400 	0.30070 	0.05080 	0.00615 	-0.10790 
0.99750 	1.12375 	1.13760 	0.93530 	0.46735 	0.51750 	1.04965 	0.88410 	0.55380 	0.48155 	0.76985 	0.54515 	0.32165 	0.41140 	0.63895 	0.43760 	0.24820 	0.36785 	0.56825 	0.42035 	0.19600 	0.02790 	0.25355 	0.26990 	0.01890 	-0.00620 	-0.12260 
1.00910 	1.12060 	1.12275 	0.91465 	0.43085 	0.48970 	1.03285 	0.87555 	0.51745 	0.44015 	0.74420 	0.53905 	0.32015 	0.32970 	0.60305 	0.40520 	0.19695 	0.29105 	0.54090 	0.38750 	0.15220 	-0.02145 	0.23860 	0.23500 	-0.01630 	-0.02095 	-0.13930 
1.01550 	1.10960 	1.10210 	0.88570 	0.39250 	0.45530 	1.00890 	0.85775 	0.47490 	0.39085 	0.71205 	0.52755 	0.31460 	0.24565 	0.56200 	0.36810 	0.13980 	0.21360 	0.50765 	0.34910 	0.10435 	-0.07170 	0.21860 	0.19585 	-0.05475 	-0.03830 	-0.15845 
1.01620 	1.09045 	1.07610 	0.84930 	0.35330 	0.41635 	0.97810 	0.83070 	0.42810 	0.33510 	0.67390 	0.51025 	0.30395 	0.16195 	0.51600 	0.32675 	0.07825 	0.13720 	0.46875 	0.30545 	0.05300 	-0.12230 	0.19340 	0.15270 	-0.09605 	-0.05835 	-0.18020 
1.01110 	1.06350 	1.04555 	0.80685 	0.31485 	0.37540 	0.94145 	0.79520 	0.37935 	0.27555 	0.63075 	0.48735 	0.28765 	0.08065 	0.46565 	0.28185 	0.01400 	0.06310 	0.42465 	0.25720 	-0.00095 	-0.17260 	0.16325 	0.10610 	-0.13950 	-0.08095 	-0.20445 
1.00060 	1.03000 	1.01175 	0.76030 	0.27885 	0.33510 	0.90010 	0.75245 	0.33130 	0.21475 	0.58375 	0.45930 	0.26555 	0.00365 	0.41190 	0.23440 	-0.05100 	-0.00790 	0.37615 	0.20515 	-0.05660 	-0.22210 	0.12870 	0.05685 	-0.18420 	-0.10565 	-0.23075 
0.98520 	0.99160 	0.97615 	0.71200 	0.24680 	0.29775 	0.85565 	0.70440 	0.28655 	0.15490 	0.53435 	0.42710 	0.23830 	-0.06815 	0.35560 	0.18545 	-0.11480 	-0.07555 	0.32420 	0.15030 	-0.11285 	-0.27025 	0.09070 	0.00600 	-0.22920 	-0.13190 	-0.25840 
0.96565 	0.95025 	0.94025 	0.66410 	0.22010 	0.26485 	0.80985 	0.65315 	0.24730 	0.09755 	0.48410 	0.39210 	0.20675 	-0.13445 	0.29795 	0.13610 	-0.17555 	-0.14005 	0.26985 	0.09390 	-0.16880 	-0.31665 	0.05040 	-0.04555 	-0.27340 	-0.15900 	-0.28645 
0.94295 	0.90830 	0.90555 	0.61870 	0.19955 	0.23725 	0.76450 	0.60130 	0.21530 	0.04345 	0.43460 	0.35580 	0.17205 	-0.19550 	0.24005 	0.08780 	-0.23145 	-0.20200 	0.21425 	0.03710 	-0.22330 	-0.36095 	0.00910 	-0.09655 	-0.31580 	-0.18595 	-0.31335 
0.91830 	0.86825 	0.87345 	0.57750 	0.18560 	0.21475 	0.72130 	0.55135 	0.19160 	-0.00725 	0.38740 	0.32045 	0.13560 	-0.25190 	0.18315 	0.04170 	-0.28125 	-0.26185 	0.15865 	-0.01865 	-0.27540 	-0.40305 	-0.03160 	-0.14590 	-0.35540 	-0.21175 	-0.33770 
0.89320 	0.83245 	0.84515 	0.54195 	0.17860 	0.19710 	0.68195 	0.50600 	0.17680 	-0.05475 	0.34410 	0.28840 	0.09860 	-0.30400 	0.12860 	-0.00070 	-0.32370 	-0.31995 	0.10445 	-0.07200 	-0.32390 	-0.44260 	-0.07005 	-0.19230 	-0.39120 	-0.23505 	-0.35780 
0.86920 	0.80345 	0.82195 	0.51345 	0.17895 	0.18365 	0.64830 	0.46765 	0.17110 	-0.09930 	0.30635 	0.26220 	0.06250 	-0.35200 	0.07790 	-0.03785 	-0.35780 	-0.37605 	0.05325 	-0.12125 	-0.36750 	-0.47915 	-0.10445 	-0.23445 	-0.42210 	-0.25445 	-0.37160 
0.84815 	0.78360 	0.80535 	0.49355 	0.18730 	0.17415 	0.62215 	0.43870 	0.17450 	-0.14085 	0.27610 	0.24450 	0.02875 	-0.39565 	0.03285 	-0.06815 	-0.38250 	-0.42950 	0.00695 	-0.16445 	-0.40470 	-0.51200 	-0.13295 	-0.27080 	-0.44685 	-0.26840 	-0.37755 
0.83200 	0.77485 	0.79655 	0.48345 	0.20445 	0.16870 	0.60520 	0.42110 	0.18670 	-0.17905 	0.25485 	0.23770 	-0.00090 	-0.43430 	-0.00465 	-0.08980 	-0.39705 	-0.47920 	-0.03280 	-0.19985 	-0.43380 	-0.54025 	-0.15355 	-0.29995 	-0.46440 	-0.27545 	-0.37410 
0.82245 	0.77860 	0.79660 	0.48430 	0.23110 	0.16810 	0.59875 	0.41620 	0.20725 	-0.21295 	0.24400 	0.24350 	-0.02480 	-0.46720 	-0.03295 	-0.10155 	-0.40065 	-0.52400 	-0.06415 	-0.22570 	-0.45330 	-0.56295 	-0.16485 	-0.32070 	-0.47360 	-0.27430 	-0.36035 
0.82060 	0.79530 	0.80605 	0.49650 	0.26750 	0.17320 	0.60350 	0.42455 	0.23545 	-0.24140 	0.24430 	0.26280 	-0.04120 	-0.49315 	-0.05070 	-0.10230 	-0.39280 	-0.56235 	-0.08570 	-0.24060 	-0.46180 	-0.57920 	-0.16580 	-0.33200 	-0.47375 	-0.26425 	-0.33595 
0.82680 	0.82430 	0.82460 	0.52015 	0.31350 	0.18500 	0.61930 	0.44580 	0.27055 	-0.26305 	0.25585 	0.29545 	-0.04865 	-0.51070 	-0.05715 	-0.09180 	-0.37365 	-0.59290 	-0.09670 	-0.24380 	-0.45845 	-0.58830 	-0.15590 	-0.33355 	-0.46445 	-0.24500 	-0.30135 
0.84045 	0.86365 	0.85135 	0.55420 	0.36810 	0.20405 	0.64505 	0.47860 	0.31155 	-0.27720 	0.27770 	0.34000 	-0.04640 	-0.51860 	-0.05260 	-0.07050 	-0.34385 	-0.61400 	-0.09720 	-0.23540 	-0.44305 	-0.58980 	-0.13560 	-0.32545 	-0.44590 	-0.21695 	-0.25750 
0.86005 	0.91025 	0.88425 	0.59705 	0.42985 	0.23030 	0.67875 	0.52085 	0.35715 	-0.28305 	0.30830 	0.39400 	-0.03450 	-0.51535 	-0.03790 	-0.03965 	-0.30475 	-0.62430 	-0.08800 	-0.21605 	-0.41590 	-0.58330 	-0.10595 	-0.30840 	-0.41875 	-0.18085 	-0.20585 
0.88325 	0.96030 	0.92075 	0.64645 	0.49690 	0.26310 	0.71785 	0.56985 	0.40570 	-0.28045 	0.34540 	0.45460 	-0.01380 	-0.50015 	-0.01465 	-0.00095 	-0.25780 	-0.62245 	-0.07030 	-0.18715 	-0.37805 	-0.56875 	-0.06845 	-0.28350 	-0.38405 	-0.13770 	-0.14795 
0.90765 	1.00960 	0.95810 	0.69980 	0.56705 	0.30110 	0.75950 	0.62275 	0.45560 	-0.26910 	0.38665 	0.51860 	0.01415 	-0.47265 	0.01520 	0.04380 	-0.20485 	-0.60790 	-0.04600 	-0.15035 	-0.33075 	-0.54610 	-0.02475 	-0.25190 	-0.34300 	-0.08880 	-0.08545 
0.93065 	1.05405 	0.99345 	0.75460 	0.63790 	0.34285 	0.80085 	0.67670 	0.50525 	-0.24835 	0.42960 	0.58320 	0.04765 	-0.43300 	0.04980 	0.09270 	-0.14760 	-0.58045 	-0.01675 	-0.10750 	-0.27555 	-0.51545 	0.02310 	-0.21490 	-0.29675 	-0.03520 	-0.01990 
0.95015 	1.09030 	1.02445 	0.80830 	0.70745 	0.38680 	0.83945 	0.72900 	0.55320 	-0.21765 	0.47230 	0.64565 	0.08505 	-0.38210 	0.08735 	0.14435 	-0.08745 	-0.54105 	0.01585 	-0.06030 	-0.21395 	-0.47700 	0.07375 	-0.17355 	-0.24640 	0.02195 	0.04735 
0.96440 	1.11560 	1.04900 	0.85890 	0.77345 	0.43155 	0.87330 	0.77725 	0.59810 	-0.17630 	0.51295 	0.70365 	0.12495 	-0.32155 	0.12640 	0.19725 	-0.02545 	-0.49140 	0.05040 	-0.01045 	-0.14745 	-0.43150 	0.12555 	-0.12885 	-0.19315 	0.08165 	0.11505 
0.97215 	1.12815 	1.06565 	0.90440 	0.83390 	0.47580 	0.90055 	0.81935 	0.63905 	-0.12400 	0.55020 	0.75515 	0.16595 	-0.25345 	0.16565 	0.25035 	0.03730 	-0.43435 	0.08560 	0.04055 	-0.07770 	-0.37980 	0.17750 	-0.08175 	-0.13835 	0.14285 	0.18215 
0.97275 	1.12715 	1.07340 	0.94325 	0.88680 	0.51865 	0.91995 	0.85345 	0.67470 	-0.06130 	0.58280 	0.79835 	0.20730 	-0.18040 	0.20405 	0.30240 	0.10010 	-0.37310 	0.12065 	0.09125 	-0.00650 	-0.32340 	0.22855 	-0.03295 	-0.08320 	0.20460 	0.24765 
0.96585 	1.11245 	1.07150 	0.97375 	0.92995 	0.55940 	0.93050 	0.87780 	0.70385 	0.01070 	0.60975 	0.83150 	0.24785 	-0.10470 	0.24055 	0.35225 	0.16220 	-0.31095 	0.15440 	0.14030 	0.06440 	-0.26400 	0.27780 	0.01635 	-0.02900 	0.26565 	0.31040 
0.95150 	1.08450 	1.05950 	0.99455 	0.96125 	0.59745 	0.93125 	0.89090 	0.72545 	0.09010 	0.63015 	0.85285 	0.28660 	-0.02840 	0.27420 	0.39870 	0.22280 	-0.25085 	0.18615 	0.18640 	0.13320 	-0.20365 	0.32465 	0.06540 	0.02300 	0.32490 	0.36955 
0.93020 	1.04465 	1.03750 	1.00430 	0.97890 	0.63240 	0.92185 	0.89185 	0.73835 	0.17485 	0.64335 	0.86120 	0.32260 	0.04690 	0.30425 	0.44040 	0.28100 	-0.19510 	0.21515 	0.22855 	0.19820 	-0.14450 	0.36830 	0.11310 	0.07185 	0.38120 	0.42395 
0.90235 	0.99445 	1.00555 	1.00220 	0.98150 	0.66355 	0.90225 	0.88005 	0.74185 	0.26260 	0.64865 	0.85600 	0.35470 	0.12000 	0.32995 	0.47625 	0.33565 	-0.14530 	0.24080 	0.26575 	0.25775 	-0.08865 	0.40850 	0.15855 	0.11665 	0.43335 	0.47275 
0.86880 	0.93595 	0.96435 	0.98800 	0.96885 	0.68985 	0.87270 	0.85575 	0.73520 	0.35075 	0.64610 	0.83715 	0.38215 	0.18995 	0.35085 	0.50530 	0.38540 	-0.10235 	0.26265 	0.29730 	0.31050 	-0.03810 	0.44475 	0.20095 	0.15690 	0.48050 	0.51500 
0.83020 	0.87135 	0.91470 	0.96180 	0.94145 	0.71000 	0.83405 	0.81995 	0.71825 	0.43675 	0.63585 	0.80580 	0.40425 	0.25565 	0.36675 	0.52670 	0.42895 	-0.06675 	0.28040 	0.32275 	0.35515 	0.00550 	0.47685 	0.23930 	0.19205 	0.52155 	0.54980 
0.78735 	0.80275 	0.85775 	0.92455 	0.90100 	0.72260 	0.78720 	0.77420 	0.69110 	0.51770 	0.61840 	0.76345 	0.42060 	0.31575 	0.37750 	0.54020 	0.46520 	-0.03890 	0.29395 	0.34170 	0.39065 	0.04115 	0.50435 	0.27305 	0.22180 	0.55595 	0.57645 
0.74085 	0.73190 	0.79455 	0.87745 	0.84990 	0.72615 	0.73345 	0.72040 	0.65485 	0.59085 	0.59450 	0.71240 	0.43140 	0.36870 	0.38330 	0.54585 	0.49345 	-0.01875 	0.30330 	0.35425 	0.41655 	0.06830 	0.52730 	0.30155 	0.24585 	0.58310 	0.59425 
0.69105 	0.66040 	0.72620 	0.82195 	0.79090 	0.71950 	0.67415 	0.66080 	0.61105 	0.65345 	0.56520 	0.65510 	0.43740 	0.41295 	0.38470 	0.54425 	0.51360 	-0.00630 	0.30885 	0.36065 	0.43270 	0.08725 	0.54550 	0.32460 	0.26425 	0.60290 	0.60300 
0.63810 	0.58905 	0.65385 	0.75960 	0.72695 	0.70155 	0.61065 	0.59750 	0.56215 	0.70295 	0.53140 	0.59380 	0.43975 	0.44695 	0.38200 	0.53600 	0.52585 	-0.00110 	0.31100 	0.36150 	0.43935 	0.09885 	0.55895 	0.34210 	0.27730 	0.61545 	0.60280 
0.58195 	0.51835 	0.57835 	0.69185 	0.66045 	0.67155 	0.54400 	0.53225 	0.51045 	0.73725 	0.49405 	0.53040 	0.43975 	0.47000 	0.37565 	0.52190 	0.53065 	-0.00250 	0.31005 	0.35715 	0.43715 	0.10415 	0.56780 	0.35415 	0.28510 	0.62110 	0.59375 
0.52235 	0.44780 	0.49995 	0.61955 	0.59360 	0.62930 	0.47500 	0.46610 	0.45820 	0.75515 	0.45370 	0.46600 	0.43845 	0.48205 	0.36590 	0.50240 	0.52830 	-0.00985 	0.30635 	0.34830 	0.42665 	0.10415 	0.57165 	0.36075 	0.28790 	0.62010 	0.57625 
0.45850 	0.37645 	0.41895 	0.54335 	0.52765 	0.57525 	0.40400 	0.39930 	0.40690 	0.75635 	0.41060 	0.40090 	0.43645 	0.48415 	0.35260 	0.47770 	0.51885 	-0.02240 	0.29970 	0.33505 	0.40840 	0.10000 	0.57030 	0.36190 	0.28545 	0.61255 	0.55060 
0.38995 	0.30310 	0.33510 	0.46355 	0.46335 	0.51100 	0.33100 	0.33155 	0.35740 	0.74170 	0.36460 	0.33490 	0.43385 	0.47805 	0.33535 	0.44760 	0.50215 	-0.03950 	0.28975 	0.31760 	0.38280 	0.09220 	0.56310 	0.35740 	0.27770 	0.59880 	0.51750 
0.31635 	0.22640 	0.24855 	0.38050 	0.40135 	0.43910 	0.25595 	0.26240 	0.31025 	0.71355 	0.31575 	0.26725 	0.43030 	0.46625 	0.31395 	0.41215 	0.47800 	-0.06005 	0.27630 	0.29605 	0.35040 	0.08140 	0.54990 	0.34760 	0.26475 	0.57940 	0.47805 
0.23765 	0.14535 	0.15950 	0.29485 	0.34220 	0.36295 	0.17920 	0.19170 	0.26575 	0.67495 	0.26420 	0.19770 	0.42570 	0.45150 	0.28830 	0.37145 	0.44665 	-0.08275 	0.25930 	0.27080 	0.31210 	0.06845 	0.53065 	0.33275 	0.24705 	0.55530 	0.43380 
0.15440 	0.05975 	0.06870 	0.20760 	0.28650 	0.28625 	0.10130 	0.11990 	0.22430 	0.62955 	0.21060 	0.12650 	0.41995 	0.43635 	0.25880 	0.32615 	0.40875 	-0.10575 	0.23910 	0.24260 	0.26915 	0.05430 	0.50585 	0.31400 	0.22575 	0.52790 	0.38695 
0.06750 	-0.03030 	-0.02280 	0.12010 	0.23485 	0.21225 	0.02330 	0.04820 	0.18615 	0.58070 	0.15585 	0.05450 	0.41335 	0.42280 	0.22625 	0.27735 	0.36570 	-0.12730 	0.21630 	0.21235 	0.22335 	0.04040 	0.47655 	0.29230 	0.20225 	0.49870 	0.33965 
-0.02170 	-0.12410 	-0.11385 	0.03385 	0.18725 	0.14325 	-0.05355 	-0.02200 	0.15125 	0.53120 	0.10125 	-0.01665 	0.40600 	0.41180 	0.19160 	0.22655 	0.31935 	-0.14560 	0.19160 	0.18120 	0.17680 	0.02795 	0.44380 	0.26910 	0.17815 	0.46910 	0.29415 
-0.11210 	-0.22060 	-0.20320 	-0.04995 	0.14330 	0.08045 	-0.12815 	-0.08910 	0.11880 	0.48270 	0.04790 	-0.08520 	0.39800 	0.40325 	0.15590 	0.17510 	0.27160 	-0.15950 	0.16580 	0.15030 	0.13150 	0.01830 	0.40870 	0.24545 	0.15520 	0.44020 	0.25200 
-0.20245 	-0.31850 	-0.29010 	-0.13030 	0.10190 	0.02415 	-0.19950 	-0.15165 	0.08720 	0.43605 	-0.00320 	-0.14905 	0.38915 	0.39555 	0.12005 	0.12455 	0.22470 	-0.16835 	0.13940 	0.12050 	0.08945 	0.01235 	0.37240 	0.22220 	0.13460 	0.41265 	0.21445 
-0.29145 	-0.41630 	-0.37370 	-0.20655 	0.06165 	-0.02605 	-0.26680 	-0.20885 	0.05460 	0.39100 	-0.05135 	-0.20660 	0.37900 	0.38615 	0.08470 	0.07625 	0.18050 	-0.17225 	0.11290 	0.09255 	0.05210 	0.01060 	0.33560 	0.19995 	0.11750 	0.38680 	0.18195 
-0.37835 	-0.51245 	-0.45360 	-0.27850 	0.02085 	-0.07105 	-0.32980 	-0.26025 	0.01875 	0.34685 	-0.09620 	-0.25655 	0.36670 	0.37190 	0.05025 	0.03105 	0.14045 	-0.17180 	0.08640 	0.06670 	0.02030 	0.01305 	0.29870 	0.17865 	0.10410 	0.36225 	0.15420 
-0.46220 	-0.60540 	-0.52965 	-0.34610 	-0.02220 	-0.11195 	-0.38855 	-0.30615 	-0.02210 	0.30215 	-0.13790 	-0.29835 	0.35120 	0.34945 	0.01665 	-0.01070 	0.10530 	-0.16815 	0.05965 	0.04285 	-0.00565 	0.01900 	0.26185 	0.15810 	0.09425 	0.33850 	0.13040 
-0.54265 	-0.69390 	-0.60205 	-0.40985 	-0.06900 	-0.14995 	-0.44355 	-0.34735 	-0.06935 	0.25565 	-0.17700 	-0.33240 	0.33120 	0.31640 	-0.01645 	-0.04910 	0.07515 	-0.16245 	0.03230 	0.02060 	-0.02625 	0.02750 	0.22485 	0.13755 	0.08700 	0.31450 	0.10925 
-0.61940 	-0.77680 	-0.67100 	-0.47040 	-0.12065 	-0.18600 	-0.49565 	-0.38510 	-0.12335 	0.20560 	-0.21470 	-0.35975 	0.30520 	0.27140 	-0.04980 	-0.08475 	0.04945 	-0.15520 	0.00375 	-0.00075 	-0.04250 	0.03735 	0.18720 	0.11615 	0.08110 	0.28895 	0.08925 
-0.69255 	-0.85340 	-0.73720 	-0.52840 	-0.17770 	-0.22100 	-0.54575 	-0.42095 	-0.18345 	0.15065 	-0.25215 	-0.38180 	0.27195 	0.21520 	-0.08415 	-0.11845 	0.02735 	-0.14630 	-0.02655 	-0.02195 	-0.05550 	0.04765 	0.14840 	0.09315 	0.07535 	0.26090 	0.06895 
-0.76225 	-0.92315 	-0.80100 	-0.58440 	-0.24010 	-0.25535 	-0.59475 	-0.45615 	-0.24810 	0.08975 	-0.29055 	-0.40025 	0.23060 	0.15025 	-0.12005 	-0.15095 	0.00775 	-0.13440 	-0.05895 	-0.04370 	-0.06645 	0.05775 	0.10825 	0.06805 	0.06890 	0.22980 	0.04785 
-0.82865 	-0.98590 	-0.86280 	-0.63895 	-0.30700 	-0.28935 	-0.64340 	-0.49175 	-0.31500 	0.02210 	-0.33085 	-0.41645 	0.18060 	0.08055 	-0.15790 	-0.18290 	-0.01060 	-0.11760 	-0.09335 	-0.06615 	-0.07630 	0.06765 	0.06685 	0.04105 	0.06155 	0.19560 	0.02580 
-0.89215 	-1.04165 	-0.92275 	-0.69230 	-0.37715 	-0.32310 	-0.69200 	-0.52850 	-0.38155 	-0.05205 	-0.37345 	-0.43170 	0.12215 	0.01070 	-0.19760 	-0.21440 	-0.02835 	-0.09405 	-0.12940 	-0.08935 	-0.08555 	0.07785 	0.02465 	0.01270 	0.05365 	0.15885 	0.00360 
-0.95285 	-1.09090 	-0.98100 	-0.74450 	-0.44905 	-0.35650 	-0.74075 	-0.56680 	-0.44535 	-0.13180 	-0.41860 	-0.44690 	0.05575 	-0.05475 	-0.23895 	-0.24570 	-0.04635 	-0.06225 	-0.16665 	-0.11315 	-0.09460 	0.08900 	-0.01790 	-0.01605 	0.04605 	0.12060 	-0.01755 
-1.01110 	-1.13435 	-1.03765 	-0.79600 	-0.52105 	-0.38955 	-0.78985 	-0.60705 	-0.50475 	-0.21505 	-0.46625 	-0.46305 	-0.01750 	-0.11210 	-0.28150 	-0.27685 	-0.06515 	-0.02180 	-0.20445 	-0.13730 	-0.10345 	0.10195 	-0.06015 	-0.04420 	0.03955 	0.08175 	-0.03650 
-1.06700 	-1.17340 	-1.09315 	-0.84705 	-0.59200 	-0.42205 	-0.83975 	-0.65010 	-0.55880 	-0.29915 	-0.51640 	-0.48135 	-0.09630 	-0.15890 	-0.32525 	-0.30805 	-0.08525 	0.02660 	-0.24260 	-0.16185 	-0.11195 	0.11720 	-0.10195 	-0.07110 	0.03480 	0.04330 	-0.05250 
-1.12075 	-1.20945 	-1.14800 	-0.89835 	-0.66105 	-0.45390 	-0.89100 	-0.69665 	-0.60750 	-0.38120 	-0.56930 	-0.50325 	-0.17910 	-0.19445 	-0.37015 	-0.33975 	-0.10715 	0.08090 	-0.28095 	-0.18700 	-0.12020 	0.13485 	-0.14330 	-0.09630 	0.03220 	0.00560 	-0.06520 
-1.17250 	-1.24440 	-1.20290 	-0.95040 	-0.72765 	-0.48530 	-0.94430 	-0.74785 	-0.65135 	-0.45855 	-0.62505 	-0.53035 	-0.26410 	-0.21945 	-0.41645 	-0.37260 	-0.13155 	0.13820 	-0.31975 	-0.21325 	-0.12835 	0.15455 	-0.18460 	-0.11975 	0.03165 	-0.03120 	-0.07490 
-1.22225 	-1.27990 	-1.25865 	-1.00385 	-0.79155 	-0.51640 	-1.00040 	-0.80460 	-0.69085 	-0.52925 	-0.68395 	-0.56415 	-0.34945 	-0.23615 	-0.46450 	-0.40735 	-0.15900 	0.19495 	-0.35950 	-0.24125 	-0.13680 	0.17550 	-0.22655 	-0.14195 	0.03290 	-0.06745 	-0.08225 
-1.26995 	-1.31750 	-1.31565 	-1.05875 	-0.85235 	-0.54750 	-1.05965 	-0.86720 	-0.72675 	-0.59175 	-0.74575 	-0.60550 	-0.43300 	-0.24720 	-0.51455 	-0.44465 	-0.18995 	0.24770 	-0.40055 	-0.27160 	-0.14600 	0.19675 	-0.26960 	-0.16355 	0.03530 	-0.10360 	-0.08830 
-1.31530 	-1.35785 	-1.37405 	-1.11480 	-0.90955 	-0.57870 	-1.12200 	-0.93525 	-0.75945 	-0.64510 	-0.81005 	-0.65455 	-0.51265 	-0.25570 	-0.56640 	-0.48465 	-0.22460 	0.29315 	-0.44295 	-0.30465 	-0.15645 	0.21700 	-0.31435 	-0.18515 	0.03820 	-0.14015 	-0.09395 
-1.35790 	-1.40135 	-1.43355 	-1.17135 	-0.96270 	-0.61005 	-1.18695 	-1.00740 	-0.78945 	-0.68875 	-0.87565 	-0.71045 	-0.58650 	-0.26430 	-0.61975 	-0.52730 	-0.26265 	0.32875 	-0.48680 	-0.34040 	-0.16870 	0.23530 	-0.36105 	-0.20745 	0.04085 	-0.17750 	-0.10025 
-1.39735 	-1.44730 	-1.49315 	-1.22730 	-1.01115 	-0.64155 	-1.25330 	-1.08175 	-0.81710 	-0.72230 	-0.94130 	-0.77175 	-0.65315 	-0.27505 	-0.67360 	-0.57210 	-0.30325 	0.35275 	-0.53165 	-0.37855 	-0.18290 	0.25055 	-0.40960 	-0.23100 	0.04240 	-0.21620 	-0.10815 
-1.43335 	-1.49485 	-1.55185 	-1.28140 	-1.05445 	-0.67315 	-1.31975 	-1.15580 	-0.84280 	-0.74625 	-1.00540 	-0.83620 	-0.71180 	-0.28900 	-0.72710 	-0.61810 	-0.34540 	0.36445 	-0.57695 	-0.41840 	-0.19925 	0.26195 	-0.45985 	-0.25630 	0.04220 	-0.25650 	-0.11855 
-1.46545 	-1.54250 	-1.60815 	-1.33240 	-1.09235 	-0.70500 	-1.38470 	-1.22680 	-0.86690 	-0.76155 	-1.06640 	-0.90150 	-0.76220 	-0.30660 	-0.77895 	-0.66425 	-0.38770 	0.36400 	-0.62195 	-0.45920 	-0.21745 	0.26875 	-0.51130 	-0.28345 	0.03940 	-0.29875 	-0.13215 
-1.49375 	-1.58865 	-1.66100 	-1.37925 	-1.12505 	-0.73740 	-1.44680 	-1.29235 	-0.89000 	-0.76995 	-1.12310 	-0.96540 	-0.80490 	-0.32745 	-0.82840 	-0.70940 	-0.42880 	0.35230 	-0.66585 	-0.49990 	-0.23720 	0.27035 	-0.56350 	-0.31285 	0.03360 	-0.34280 	-0.14915 
-1.51810 	-1.63170 	-1.70915 	-1.42145 	-1.15320 	-0.77045 	-1.50475 	-1.35050 	-0.91290 	-0.77340 	-1.17435 	-1.02590 	-0.84070 	-0.35070 	-0.87450 	-0.75255 	-0.46740 	0.33060 	-0.70810 	-0.53975 	-0.25780 	0.26615 	-0.61560 	-0.34430 	0.02430 	-0.38870 	-0.16965 
-1.53880 	-1.67005 	-1.75185 	-1.45905 	-1.17815 	-0.80440 	-1.55795 	-1.40025 	-0.93710 	-0.77380 	-1.21995 	-1.08165 	-0.87090 	-0.37560 	-0.91695 	-0.79285 	-0.50295 	0.30030 	-0.74800 	-0.57810 	-0.27880 	0.25575 	-0.66710 	-0.37775 	0.01115 	-0.43580 	-0.19305 
-1.55590 	-1.70255 	-1.78860 	-1.49230 	-1.20140 	-0.83925 	-1.60585 	-1.44125 	-0.96430 	-0.77290 	-1.25960 	-1.13170 	-0.89670 	-0.40155 	-0.95555 	-0.82980 	-0.53495 	0.26255 	-0.78540 	-0.61445 	-0.29985 	0.23890 	-0.71730 	-0.41290 	-0.00605 	-0.48360 	-0.21850 
-1.56955 	-1.72800 	-1.81910 	-1.52190 	-1.22420 	-0.87465 	-1.64820 	-1.47385 	-0.99560 	-0.77145 	-1.29355 	-1.17555 	-0.91900 	-0.42815 	-0.99020 	-0.86305 	-0.56330 	0.21830 	-0.81985 	-0.64830 	-0.32060 	0.21570 	-0.76555 	-0.44930 	-0.02735 	-0.53120 	-0.24505 
-1.57975 	-1.74535 	-1.84310 	-1.54815 	-1.24720 	-0.91015 	-1.68475 	-1.49815 	-1.03155 	-0.77000 	-1.32180 	-1.21260 	-0.93815 	-0.45525 	-1.02070 	-0.89240 	-0.58780 	0.16855 	-0.85100 	-0.67925 	-0.34075 	0.18685 	-0.81105 	-0.48615 	-0.05235 	-0.57740 	-0.27135 
-1.58610 	-1.75380 	-1.85990 	-1.57090 	-1.27000 	-0.94475 	-1.71480 	-1.51425 	-1.07120 	-0.76845 	-1.34415 	-1.24205 	-0.95350 	-0.48265 	-1.04670 	-0.91720 	-0.60795 	0.11445 	-0.87820 	-0.70655 	-0.35975 	0.15350 	-0.85270 	-0.52225 	-0.08010 	-0.62080 	-0.29605 
-1.58805 	-1.75240 	-1.86880 	-1.58935 	-1.29135 	-0.97730 	-1.73725 	-1.52160 	-1.11280 	-0.76665 	-1.35985 	-1.26270 	-0.96415 	-0.50985 	-1.06720 	-0.93650 	-0.62285 	0.05770 	-0.90035 	-0.72915 	-0.37685 	0.11740 	-0.88930 	-0.55590 	-0.10930 	-0.65985 	-0.31785 
-1.58470 	-1.74065 	-1.86890 	-1.60235 	-1.30950 	-1.00650 	-1.75095 	-1.51930 	-1.15395 	-0.76465 	-1.36785 	-1.27310 	-0.96875 	-0.53585 	-1.08120 	-0.94910 	-0.63140 	0.00015 	-0.91635 	-0.74570 	-0.39085 	0.08065 	-0.91935 	-0.58550 	-0.13810 	-0.69295 	-0.33520 
-1.57550 	-1.71845 	-1.85940 	-1.60860 	-1.32255 	-1.03095 	-1.75445 	-1.50660 	-1.19180 	-0.76290 	-1.36695 	-1.27165 	-0.96610 	-0.55950 	-1.08715 	-0.95365 	-0.63260 	-0.05590 	-0.92470 	-0.75500 	-0.40085 	0.04540 	-0.94155 	-0.60905 	-0.16470 	-0.71880 	-0.34720 
-1.55985 	-1.68620 	-1.83970 	-1.60695 	-1.32880 	-1.04945 	-1.74675 	-1.48310 	-1.22360 	-0.76180 	-1.35605 	-1.25700 	-0.95550 	-0.57925 	-1.08400 	-0.94895 	-0.62570 	-0.10815 	-0.92425 	-0.75575 	-0.40560 	0.01340 	-0.95490 	-0.62515 	-0.18725 	-0.73630 	-0.35330 
-1.53735 	-1.64470 	-1.80960 	-1.59665 	-1.32685 	-1.06100 	-1.72715 	-1.44885 	-1.24660 	-0.76145 	-1.33445 	-1.22875 	-0.93645 	-0.59345 	-1.07100 	-0.93425 	-0.61070 	-0.15475 	-0.91410 	-0.74735 	-0.40435 	-0.01375 	-0.95855 	-0.63255 	-0.20435 	-0.74480 	-0.35310 
-1.50810 	-1.59535 	-1.76930 	-1.57735 	-1.31560 	-1.06490 	-1.69565 	-1.40460 	-1.25840 	-0.76115 	-1.30195 	-1.18710 	-0.90910 	-0.60045 	-1.04760 	-0.90925 	-0.58810 	-0.19420 	-0.89395 	-0.72925 	-0.39655 	-0.03510 	-0.95230 	-0.63035 	-0.21490 	-0.74410 	-0.34680 
-1.47200 	-1.53965 	-1.71930 	-1.54875 	-1.29390 	-1.06025 	-1.65245 	-1.35120 	-1.25635 	-0.75905 	-1.25865 	-1.13295 	-0.87350 	-0.59840 	-1.01390 	-0.87405 	-0.55885 	-0.22550 	-0.86350 	-0.70125 	-0.38165 	-0.04990 	-0.93595 	-0.61805 	-0.21810 	-0.73395 	-0.33445 
-1.42905 	-1.47875 	-1.65990 	-1.51050 	-1.26050 	-1.04625 	-1.59780 	-1.28960 	-1.23825 	-0.75235 	-1.20490 	-1.06770 	-0.82940 	-0.58535 	-0.96990 	-0.82885 	-0.52350 	-0.24760 	-0.82245 	-0.66330 	-0.35905 	-0.05705 	-0.90930 	-0.59495 	-0.21280 	-0.71430 	-0.31595 
-1.37885 	-1.41325 	-1.59110 	-1.46190 	-1.21400 	-1.02145 	-1.53190 	-1.22005 	-1.20170 	-0.73720 	-1.14085 	-0.99265 	-0.77635 	-0.55925 	-0.91525 	-0.77360 	-0.48210 	-0.25915 	-0.77045 	-0.61500 	-0.32765 	-0.05530 	-0.87160 	-0.56030 	-0.19800 	-0.68440 	-0.29090 
-1.32055 	-1.34290 	-1.51255 	-1.40185 	-1.15280 	-0.98385 	-1.45460 	-1.14250 	-1.14465 	-0.70950 	-1.06640 	-0.90880 	-0.71350 	-0.51750 	-0.84955 	-0.70790 	-0.43415 	-0.25845 	-0.70665 	-0.55550 	-0.28615 	-0.04290 	-0.82185 	-0.51290 	-0.17195 	-0.64335 	-0.25850 
-1.25285 	-1.26645 	-1.42320 	-1.32895 	-1.07530 	-0.93085 	-1.36515 	-1.05640 	-1.06500 	-0.66520 	-0.98090 	-0.81660 	-0.63950 	-0.45740 	-0.77170 	-0.63100 	-0.37820 	-0.24285 	-0.62990 	-0.48355 	-0.23270 	-0.01770 	-0.75835 	-0.45095 	-0.13270 	-0.58970 	-0.21725 
-1.17370 	-1.18185 	-1.32150 	-1.24135 	-0.97995 	-0.85960 	-1.26255 	-0.96040 	-0.96155 	-0.60080 	-0.88320 	-0.71575 	-0.55245 	-0.37605 	-0.68030 	-0.54150 	-0.31240 	-0.20925 	-0.53840 	-0.39725 	-0.16490 	0.02280 	-0.67885 	-0.37260 	-0.07775 	-0.52140 	-0.16525 
-1.08095 	-1.08630 	-1.20560 	-1.13740 	-0.86590 	-0.76725 	-1.14520 	-0.85295 	-0.83345 	-0.51385 	-0.77190 	-0.60560 	-0.44990 	-0.27070 	-0.57355 	-0.43765 	-0.23455 	-0.15415 	-0.43035 	-0.29475 	-0.08030 	0.08110 	-0.58090 	-0.27550 	-0.00440 	-0.43655 	-0.10065 
-0.97230 	-0.97645 	-1.07340 	-1.01520 	-0.73235 	-0.65175 	-1.01160 	-0.73215 	-0.68070 	-0.40270 	-0.64535 	-0.48465 	-0.32865 	-0.13915 	-0.44945 	-0.31760 	-0.14205 	-0.07415 	-0.30360 	-0.17365 	0.02365 	0.15970 	-0.46185 	-0.15745 	0.09000 	-0.33300 	-0.02120 
-0.84555 	-0.84930 	-0.92300 	-0.87330 	-0.57930 	-0.51180 	-0.86005 	-0.59595 	-0.50385 	-0.26690 	-0.50190 	-0.35120 	-0.18555 	0.01995 	-0.30620 	-0.17945 	-0.03240 	0.03325 	-0.15645 	-0.03225 	0.14900 	0.26085 	-0.31935 	-0.01655 	0.20795 	-0.20875 	0.07495 
-0.69900 	-0.70190 	-0.75265 	-0.71040 	-0.40705 	-0.34755 	-0.68890 	-0.44210 	-0.30425 	-0.10680 	-0.33995 	-0.20330 	-0.01775 	0.20685 	-0.14215 	-0.02145 	0.09705 	0.16965 	0.01280 	0.13125 	0.29780 	0.38615 	-0.15120 	0.14905 	0.35160 	-0.06185 	0.18970 
-0.53125 	-0.53195 	-0.56125 	-0.52585 	-0.21650 	-0.15980 	-0.49705 	-0.26885 	-0.08350 	0.07675 	-0.15825 	-0.03905 	0.17655 	0.42090 	0.04400 	0.15780 	0.24855 	0.33510 	0.20515 	0.31815 	0.47135 	0.53700 	0.04415 	0.34065 	0.52255 	0.10920 	0.32485 
-0.34145 	-0.33775 	-0.34800 	-0.31925 	-0.00850 	0.04980 	-0.28340 	-0.07475 	0.15660 	0.28255 	0.04440 	0.14345 	0.39835 	0.66075 	0.25330 	0.35960 	0.42430 	0.52855 	0.42165 	0.52940 	0.67080 	0.71405 	0.26810 	0.55920 	0.72220 	0.30595 	0.48210 
-0.12900 	-0.11830 	-0.11260 	-0.09070 	0.21585 	0.27955 	-0.04750 	0.14120 	0.41420 	0.50905 	0.26855 	0.34555 	0.64700 	0.92455 	0.48635 	0.58485 	0.62590 	0.74815 	0.66275 	0.76565 	0.89685 	0.91765 	0.52150 	0.80550 	0.95135 	0.52970 	0.66325 
0.10635 	0.12665 	0.14470 	0.15915 	0.45565 	0.52755 	0.21075 	0.37920 	0.68745 	0.75470 	0.51445 	0.56815 	0.92110 	1.21035 	0.74350 	0.83420 	0.85450 	0.99120 	0.92860 	1.02715 	1.14975 	1.14760 	0.80455 	1.07975 	1.21035 	0.78130 	0.86995 
0.36410 	0.39640 	0.42310 	0.42920 	0.70980 	0.79175 	0.49055 	0.63840 	0.97460 	1.01810 	0.78175 	0.81130 	1.21815 	1.51615 	1.02425 	1.10735 	1.11015 	1.25465 	1.21885 	1.31345 	1.42920 	1.40325 	1.11690 	1.38165 	1.49900 	1.06115 	1.10330 
0.64310 	0.68915 	0.72080 	0.71745 	0.97675 	1.06985 	0.79030 	0.91700 	1.27355 	1.29775 	1.06900 	1.07400 	1.53465 	1.83990 	1.32740 	1.40335 	1.39170 	1.53510 	1.53210 	1.62330 	1.73385 	1.68315 	1.45705 	1.70985 	1.81605 	1.36870 	1.36375 
0.94125 	1.00170 	1.03500 	1.02085 	1.25395 	1.35890 	1.10710 	1.21135 	1.58145 	1.59200 	1.37355 	1.35355 	1.86615 	2.17915 	1.65030 	1.71975 	1.69625 	1.82825 	1.86605 	1.95415 	2.06085 	1.98495 	1.82215 	2.06180 	2.15900 	1.70215 	1.65040 
1.25500 	1.32930 	1.36120 	1.33495 	1.53805 	1.65540 	1.43655 	1.51610 	1.89465 	1.89855 	1.69140 	1.64560 	2.20715 	2.53080 	1.98880 	2.05255 	2.01920 	2.12925 	2.21650 	2.30175 	2.40570 	2.30505 	2.20755 	2.43345 	2.52365 	2.05805 	1.96055 
1.57945 	1.66550 	1.69380 	1.65385 	1.82430 	1.95510 	1.77255 	1.82430 	2.20835 	2.21435 	2.01660 	1.94370 	2.55075 	2.89060 	2.33680 	2.39570 	2.35400 	2.43190 	2.57760 	2.66010 	2.76205 	2.63845 	2.60685 	2.81865 	2.90400 	2.43115 	2.28980 
1.90785 	2.00240 	2.02540 	1.97020 	2.10700 	2.25320 	2.10760 	2.12725 	2.51645 	2.53510 	2.34180 	2.23965 	2.88885 	3.25235 	2.68635 	2.74115 	2.69235 	2.72865 	2.94155 	3.02105 	3.12165 	2.97805 	3.01150 	3.20935 	3.29185 	2.81400 	2.63140 
2.23175 	2.33030 	2.34700 	2.27525 	2.37895 	2.54355 	2.43225 	2.41470 	2.81130 	2.85415 	2.65750 	2.52325 	3.21195 	3.60715 	3.02745 	3.07880 	3.02410 	3.01025 	3.29830 	3.37435 	3.47380 	3.31440 	3.41050 	3.59505 	3.67635 	3.19640 	2.97585 
2.54055 	2.63780 	2.64765 	2.55825 	2.63115 	2.81845 	2.73520 	2.67495 	3.08330 	3.16275 	2.95210 	2.78255 	3.50870 	3.94310 	3.34765 	3.39620 	3.33700 	3.26510 	3.63525 	3.70740 	3.80570 	3.63525 	3.79025 	3.96260 	4.04395 	3.56550 	3.31090 
2.82130 	2.91165 	2.91455 	2.80675 	2.85270 	3.06805 	3.00325 	2.89485 	3.32085 	3.44900 	3.21200 	3.00390 	3.76605 	4.24535 	3.63240 	3.67870 	3.61690 	3.47935 	3.93745 	4.00515 	4.10225 	3.92520 	4.13480 	4.29620 	4.37810 	3.90550 	3.62125 
3.05920 	3.13715 	3.13320 	3.00690 	3.03060 	3.27980 	3.22165 	3.06015 	3.51020 	3.69850 	3.42180 	3.17270 	3.96910 	4.49615 	3.86545 	3.90995 	3.84780 	3.63695 	4.18785 	4.25060 	4.34625 	4.16645 	4.42585 	4.57775 	4.65995 	4.19810 	3.88900 
3.23860 	3.29925 	3.28870 	3.14410 	3.15065 	3.43955 	3.37500 	3.15655 	3.63650 	3.89480 	3.56535 	3.27400 	4.10215 	4.67700 	4.02970 	4.07280 	4.01285 	3.72060 	4.36850 	4.42600 	4.51955 	4.33950 	4.64400 	4.78790 	4.86900 	4.42345 	4.09455 
3.34440 	3.38395 	3.36705 	3.20460 	3.19950 	3.53290 	3.44905 	3.17100 	3.68545 	4.02215 	3.62765 	3.29450 	4.15015 	4.77025 	4.10900 	4.15110 	4.09610 	3.71380 	4.46225 	4.51415 	4.60480 	4.42530 	4.77065 	4.90785 	4.98535 	4.56195 	4.21820 
3.36465 	3.38090 	3.35760 	3.17830 	3.16685 	3.54760 	3.43295 	3.09430 	3.64600 	4.06730 	3.59710 	3.22460 	4.10120 	4.76185 	4.09060 	4.13215 	4.08470 	3.60300 	4.45490 	4.50140 	4.58780 	4.40785 	4.79045 	4.92175 	4.99190 	4.59695 	4.24310 
3.29280 	3.28535 	3.25545 	3.06095 	3.04820 	3.47645 	3.32180 	2.92340 	3.51295 	4.02240 	3.46800 	3.06090 	3.94930 	4.64395 	3.96775 	4.00925 	3.97185 	3.38070 	4.33860 	4.37995 	4.46045 	4.27690 	4.69395 	4.81975 	4.87760 	4.51750 	4.15800 
3.13010 	3.10085 	3.06405 	2.85625 	2.84710 	3.31960 	3.11895 	2.66380 	3.28940 	3.88715 	3.24335 	2.80850 	3.69680 	4.41725 	3.74220 	3.78435 	3.75915 	3.04780 	4.11390 	4.15055 	4.22315 	4.03095 	4.48060 	4.60060 	4.64030 	4.32135 	3.96005 
2.88675 	2.83965 	2.79575 	2.57730 	2.57595 	3.08595 	2.83710 	2.33035 	2.98760 	3.66930 	2.93550 	2.48225 	3.35545 	4.09160 	3.42545 	3.46915 	3.45795 	2.61475 	3.79135 	3.82400 	3.88650 	3.67840 	4.15985 	4.27320 	4.28830 	4.01630 	3.65620 
2.58135 	2.52235 	2.47115 	2.24535 	2.25505 	2.79220 	2.49735 	1.94670 	2.62810 	3.38440 	2.56565 	2.10550 	2.94625 	3.68545 	3.03800 	3.08465 	3.08860 	2.10145 	3.39075 	3.42035 	3.47040 	3.23755 	3.75095 	3.85625 	3.84055 	3.62010 	3.26335 
2.23825 	2.17500 	2.11645 	1.88705 	1.90970 	2.46065 	2.12645 	1.54215 	2.23660 	3.05285 	2.16100 	1.70740 	2.49615 	3.22285 	2.60685 	2.65830 	2.67825 	1.53445 	2.93890 	2.96640 	3.00200 	2.73395 	3.28030 	3.37600 	3.32375 	3.15815 	2.80575 
1.88390 	1.82475 	1.75930 	1.53055 	1.56635 	2.11540 	1.75300 	1.14750 	1.84035 	2.69710 	1.75085 	1.31875 	2.03475 	2.73010 	2.16160 	2.22020 	2.25635 	0.94370 	2.46560 	2.49195 	2.51140 	2.19720 	2.77795 	2.86215 	2.76925 	2.65960 	2.31170 
1.54260 	1.49655 	1.42480 	1.20115 	1.24860 	1.77845 	1.40285 	0.79065 	1.46380 	2.33770 	1.36215 	0.96745 	1.58955 	2.23180 	1.72980 	1.79870 	1.85070 	0.35795 	1.99915 	2.02545 	2.02770 	1.65635 	2.27295 	2.34415 	2.20840 	2.15355 	1.80955 
1.23365 	1.20925 	1.13210 	0.91840 	0.97445 	1.46695 	1.09615 	0.49325 	1.12565 	1.99080 	1.01605 	0.67500 	1.18275 	1.74840 	1.33420 	1.41695 	1.48425 	-0.19785 	1.56335 	1.59035 	1.57530 	1.13650 	1.79025 	1.84730 	1.66855 	1.66535 	1.32400 
0.96945 	0.97420 	0.89305 	0.69375 	0.75435 	1.19190 	0.84535 	0.26815 	0.83750 	1.66660 	0.72660 	0.45460 	0.82915 	1.29495 	0.99030 	1.09065 	1.17270 	-0.70480 	1.17510 	1.20340 	1.17180 	0.65675 	1.34835 	1.39055 	1.17100 	1.21440 	0.87425 
0.75520 	0.79520 	0.71150 	0.53115 	0.59140 	0.95760 	0.65505 	0.11995 	0.60390 	1.36985 	0.49945 	0.31045 	0.53600 	0.88075 	0.70595 	0.82780 	0.92400 	-1.15075 	0.84395 	0.87405 	0.82740 	0.22940 	0.95870 	0.98590 	0.72970 	0.81330 	0.47275 
0.58995 	0.66915 	0.58470 	0.42735 	0.48225 	0.76275 	0.52290 	0.04500 	0.42310 	1.10025 	0.33340 	0.23895 	0.30375 	0.51040 	0.48215 	0.62910 	0.73910 	-1.52945 	0.57265 	0.60455 	0.54535 	-0.13970 	0.62590 	0.63850 	0.35135 	0.46775 	0.12525 
0.46820 	0.58810 	0.50490 	0.37400 	0.41910 	0.60205 	0.44110 	0.03370 	0.28895 	0.85455 	0.22175 	0.23015 	0.12765 	0.18495 	0.31430 	0.48940 	0.61290 	-1.83975 	0.35840 	0.39200 	0.32310 	-0.45015 	0.34925 	0.34805 	0.03660 	0.17855 	-0.16750 
0.38160 	0.54110 	0.46105 	0.35930 	0.39095 	0.46795 	0.39855 	0.07220 	0.19260 	0.62805 	0.15410 	0.26975 	-0.00080 	-0.09690 	0.19420 	0.39950 	0.53630 	-2.08435 	0.19460 	0.22940 	0.15410 	-0.70515 	0.12415 	0.11025 	-0.21830 	-0.05785 	-0.40860 
0.32065 	0.51605 	0.44075 	0.37000 	0.38585 	0.35235 	0.38250 	0.14425 	0.12375 	0.41610 	0.11825 	0.34125 	-0.09155 	-0.33805 	0.11115 	0.34780 	0.49765 	-2.26805 	0.07230 	0.10750 	0.02960 	-0.91035 	-0.05630 	-0.08135 	-0.41985 	-0.24690 	-0.60290 
0.27600 	0.50085 	0.43170 	0.39265 	0.39205 	0.24775 	0.37995 	0.23330 	0.07230 	0.21540 	0.10130 	0.42730 	-0.15525 	-0.54160 	0.05400 	0.32190 	0.48430 	-2.39685 	-0.01820 	0.01640 	-0.06045 	-1.07220 	-0.19960 	-0.23425 	-0.57575 	-0.39525 	-0.75615 
0.23895 	0.48500 	0.42275 	0.41525 	0.39915 	0.14855 	0.37900 	0.32360 	0.02885 	0.02440 	0.09140 	0.51190 	-0.20190 	-0.71120 	0.01180 	0.30960 	0.48405 	-2.47655 	-0.08670 	-0.05390 	-0.12565 	-1.19725 	-0.31345 	-0.35585 	-0.69365 	-0.50935 	-0.87395 
0.20245 	0.45990 	0.40450 	0.42770 	0.39875 	0.05100 	0.36975 	0.40150 	-0.01405 	-0.15675 	0.07825 	0.58115 	-0.24015 	-0.85010 	-0.02490 	0.30025 	0.48610 	-2.51245 	-0.14185 	-0.11210 	-0.17475 	-1.29150 	-0.40455 	-0.45265 	-0.78045 	-0.59515 	-0.96110 
0.16075 	0.41955 	0.37025 	0.42235 	0.38475 	-0.04635 	0.34450 	0.45640 	-0.06230 	-0.32705 	0.05380 	0.62415 	-0.27730 	-0.96130 	-0.06405 	0.28505 	0.48145 	-2.50845 	-0.19095 	-0.16545 	-0.21505 	-1.35980 	-0.47860 	-0.53010 	-0.84185 	-0.65780 	-1.02190 
0.10985 	0.36005 	0.31565 	0.39425 	0.35340 	-0.14380 	0.29845 	0.48105 	-0.11975 	-0.48505 	0.01285 	0.63390 	-0.31870 	-1.04765 	-0.11120 	0.25750 	0.46365 	-2.46725 	-0.23955 	-0.21945 	-0.25195 	-1.40615 	-0.54005 	-0.59235 	-0.88220 	-0.70135 	-1.05975 
0.04705 	0.28030 	0.23900 	0.34140 	0.30265 	-0.24080 	0.22970 	0.47195 	-0.18860 	-0.62980 	-0.04715 	0.60740 	-0.36780 	-1.11170 	-0.16955 	0.21405 	0.42880 	-2.39045 	-0.29125 	-0.27740 	-0.28925 	-1.43340 	-0.59180 	-0.64235 	-0.90480 	-0.72920 	-1.07770 
-0.02845 	0.18120 	0.14120 	0.26385 	0.23240 	-0.33670 	0.13905 	0.42925 	-0.26930 	-0.76115 	-0.12580 	0.54535 	-0.42635 	-1.15575 	-0.24005 	0.15340 	0.37535 	-2.27910 	-0.34780 	-0.34065 	-0.32880 	-1.44380 	-0.63570 	-0.68195 	-0.91180 	-0.74375 	-1.07795 
-0.11650 	0.06585 	0.02535 	0.16435 	0.14380 	-0.43045 	0.02975 	0.35605 	-0.36110 	-0.87925 	-0.22030 	0.45175 	-0.49425 	-1.18215 	-0.32140 	0.07680 	0.30380 	-2.13410 	-0.40925 	-0.40900 	-0.37100 	-1.43905 	-0.67245 	-0.71195 	-0.90465 	-0.74675 	-1.06265 
-0.21520 	-0.06125 	-0.10385 	0.04700 	0.03940 	-0.52125 	-0.09315 	0.25785 	-0.46220 	-0.98485 	-0.32595 	0.33285 	-0.57000 	-1.19285 	-0.41090 	-0.01275 	0.21615 	-1.95680 	-0.47430 	-0.48075 	-0.41500 	-1.42045 	-0.70205 	-0.73275 	-0.88450 	-0.73950 	-1.03360 
-0.32180 	-0.19445 	-0.24045 	-0.08270 	-0.07720 	-0.60790 	-0.22340 	0.14160 	-0.56970 	-1.07845 	-0.43720 	0.19625 	-0.65095 	-1.18940 	-0.50445 	-0.11150 	0.11525 	-1.74980 	-0.54075 	-0.55340 	-0.45945 	-1.38930 	-0.72380 	-0.74435 	-0.85225 	-0.72265 	-0.99215 
-0.43250 	-0.32750 	-0.37810 	-0.21895 	-0.20145 	-0.68905 	-0.35420 	0.01470 	-0.67990 	-1.16050 	-0.54810 	0.04975 	-0.73385 	-1.17270 	-0.59790 	-0.21505 	0.00450 	-1.51695 	-0.60605 	-0.62435 	-0.50265 	-1.34705 	-0.73715 	-0.74675 	-0.80915 	-0.69705 	-0.94000 
-0.54305 	-0.45425 	-0.51045 	-0.35560 	-0.32810 	-0.76345 	-0.47910 	-0.11580 	-0.78880 	-1.23135 	-0.65310 	-0.09955 	-0.81495 	-1.14340 	-0.68710 	-0.31935 	-0.11260 	-1.26385 	-0.66760 	-0.69100 	-0.54325 	-1.29505 	-0.74180 	-0.74030 	-0.75635 	-0.66360 	-0.87875 
-0.64900 	-0.56895 	-0.63185 	-0.48700 	-0.45175 	-0.82965 	-0.59265 	-0.24370 	-0.89205 	-1.29120 	-0.74755 	-0.24565 	-0.89080 	-1.10210 	-0.76845 	-0.42095 	-0.23265 	-0.99720 	-0.72350 	-0.75145 	-0.58040 	-1.23505 	-0.73785 	-0.72555 	-0.69570 	-0.62340 	-0.81065 
-0.74615 	-0.66720 	-0.73785 	-0.60855 	-0.56735 	-0.88705 	-0.69060 	-0.36425 	-0.98570 	-1.34035 	-0.82840 	-0.38410 	-0.95865 	-1.05015 	-0.83945 	-0.51740 	-0.35255 	-0.72505 	-0.77225 	-0.80445 	-0.61365 	-1.16875 	-0.72595 	-0.70380 	-0.62920 	-0.57795 	-0.73785 
-0.83110 	-0.74630 	-0.82540 	-0.71690 	-0.67080 	-0.93545 	-0.77040 	-0.47430 	-1.06660 	-1.37955 	-0.89400 	-0.51205 	-1.01665 	-0.98990 	-0.89880 	-0.60700 	-0.46985 	-0.45600 	-0.81335 	-0.84980 	-0.64335 	-1.09825 	-0.70745 	-0.67655 	-0.55905 	-0.52915 	-0.66305 
-0.90145 	-0.80540 	-0.89335 	-0.81015 	-0.75940 	-0.97540 	-0.83150 	-0.57230 	-1.13295 	-1.40975 	-0.94440 	-0.62845 	-1.06425 	-0.92535 	-0.94645 	-0.68935 	-0.58280 	-0.19920 	-0.84710 	-0.88775 	-0.67000 	-1.02570 	-0.68440 	-0.64565 	-0.48765 	-0.47895 	-0.58875 
-0.95595 	-0.84550 	-0.94235 	-0.88800 	-0.83215 	-1.00815 	-0.87490 	-0.65795 	-1.18445 	-1.43225 	-0.98090 	-0.73310 	-1.10215 	-0.86125 	-0.98340 	-0.76465 	-0.69035 	0.03675 	-0.87450 	-0.91950 	-0.69480 	-0.95340 	-0.65880 	-0.61310 	-0.41730 	-0.42930 	-0.51730 
-0.99420 	-0.86890 	-0.97415 	-0.95110 	-0.88955 	-1.03505 	-0.90285 	-0.73220 	-1.22250 	-1.44860 	-1.00615 	-0.82705 	-1.13175 	-0.80325 	-1.01150 	-0.83380 	-0.79230 	0.24370 	-0.89710 	-0.94665 	-0.71880 	-0.88355 	-0.63305 	-0.58090 	-0.34995 	-0.38195 	-0.45075 
-1.01675 	-0.87905 	-0.99180 	-1.00125 	-0.93320 	-1.05780 	-0.91870 	-0.79630 	-1.24965 	-1.46080 	-1.02320 	-0.91155 	-1.15535 	-0.75705 	-1.03325 	-0.89825 	-0.88875 	0.41470 	-0.91690 	-0.97095 	-0.74335 	-0.81860 	-0.60930 	-0.55070 	-0.28740 	-0.33850 	-0.39045 
-1.02475 	-0.87955 	-0.99870 	-1.04040 	-0.96520 	-1.07810 	-0.92625 	-0.85210 	-1.26910 	-1.47100 	-1.03580 	-0.98805 	-1.17520 	-0.72810 	-1.05165 	-0.95960 	-0.98045 	0.54440 	-0.93580 	-0.99440 	-0.76990 	-0.76090 	-0.58965 	-0.52405 	-0.23110 	-0.30005 	-0.33765 
-1.01985 	-0.87420 	-0.99855 	-1.07075 	-0.98805 	-1.09755 	-0.92920 	-0.90110 	-1.28410 	-1.48155 	-1.04760 	-1.05810 	-1.19365 	-0.72035 	-1.06970 	-1.01960 	-1.06845 	0.62935 	-0.95590 	-1.01880 	-0.79975 	-0.71255 	-0.57565 	-0.50225 	-0.18220 	-0.26765 	-0.29295 
-1.00395 	-0.86620 	-0.99480 	-1.09425 	-1.00410 	-1.11785 	-0.93130 	-0.94500 	-1.29725 	-1.49470 	-1.06205 	-1.12300 	-1.21280 	-0.73615 	-1.09020 	-1.07990 	-1.15375 	0.66865 	-0.97910 	-1.04595 	-0.83405 	-0.67535 	-0.56870 	-0.48635 	-0.14145 	-0.24185 	-0.25680 
-0.97915 	-0.85835 	-0.99065 	-1.11265 	-1.01545 	-1.14040 	-0.93570 	-0.98505 	-1.31060 	-1.51230 	-1.08240 	-1.18375 	-1.23430 	-0.77560 	-1.11585 	-1.14195 	-1.23730 	0.66395 	-1.00690 	-1.07710 	-0.87370 	-0.65030 	-0.56945 	-0.47690 	-0.10910 	-0.22295 	-0.22890 
-0.94750 	-0.85240 	-0.98850 	-1.12760 	-1.02385 	-1.16630 	-0.94495 	-1.02245 	-1.32560 	-1.53535 	-1.11120 	-1.24165 	-1.25945 	-0.83695 	-1.14875 	-1.20690 	-1.31985 	0.61935 	-1.04040 	-1.11320 	-0.91910 	-0.63755 	-0.57805 	-0.47410 	-0.08510 	-0.21100 	-0.20890 
-0.91115 	-0.84955 	-0.99050 	-1.14025 	-1.03060 	-1.19650 	-0.96115 	-1.05875 	-1.34310 	-1.56440 	-1.15055 	-1.29800 	-1.28895 	-0.91670 	-1.19060 	-1.27580 	-1.40210 	0.54085 	-1.08050 	-1.15495 	-0.97020 	-0.63665 	-0.59445 	-0.47790 	-0.06915 	-0.20580 	-0.19595 
-0.87190 	-0.85040 	-0.99815 	-1.15200 	-1.03670 	-1.23125 	-0.98590 	-1.09575 	-1.36375 	-1.59855 	-1.20210 	-1.35445 	-1.32285 	-1.01045 	-1.24280 	-1.34960 	-1.48490 	0.43605 	-1.12765 	-1.20270 	-1.02680 	-0.64640 	-0.61815 	-0.48790 	-0.06075 	-0.20695 	-0.18920 
-0.83180 	-0.85495 	-1.01250 	-1.16420 	-1.04310 	-1.27010 	-1.02065 	-1.13560 	-1.38810 	-1.63620 	-1.26750 	-1.41325 	-1.36105 	-1.11330 	-1.30645 	-1.42930 	-1.56910 	0.31285 	-1.18240 	-1.25695 	-1.08825 	-0.66525 	-0.64865 	-0.50370 	-0.05930 	-0.21415 	-0.18790 
-0.79280 	-0.86330 	-1.03475 	-1.17845 	-1.05050 	-1.31220 	-1.06660 	-1.18110 	-1.41665 	-1.67475 	-1.34775 	-1.47690 	-1.40335 	-1.22065 	-1.38265 	-1.51600 	-1.65565 	0.17885 	-1.24530 	-1.31820 	-1.15430 	-0.69140 	-0.68540 	-0.52515 	-0.06425 	-0.22725 	-0.19145 
-0.75700 	-0.87545 	-1.06590 	-1.19665 	-1.06005 	-1.35640 	-1.12510 	-1.23505 	-1.45000 	-1.71150 	-1.44395 	-1.54810 	-1.44985 	-1.32870 	-1.47220 	-1.61085 	-1.74565 	0.04090 	-1.31695 	-1.38705 	-1.22445 	-0.72325 	-0.72815 	-0.55200 	-0.07540 	-0.24615 	-0.19975 
-0.72680 	-0.89175 	-1.10710 	-1.22080 	-1.07280 	-1.40145 	-1.19725 	-1.30030 	-1.48890 	-1.74410 	-1.55695 	-1.62945 	-1.50110 	-1.43465 	-1.57590 	-1.71480 	-1.83990 	-0.09570 	-1.39800 	-1.46395 	-1.29845 	-0.75950 	-0.77665 	-0.58425 	-0.09255 	-0.27105 	-0.21255 
-0.70435 	-0.91275 	-1.15935 	-1.25295 	-1.09040 	-1.44670 	-1.28405 	-1.37930 	-1.53395 	-1.77090 	-1.68680 	-1.72300 	-1.55815 	-1.53655 	-1.69415 	-1.82860 	-1.93890 	-0.22695 	-1.48885 	-1.54940 	-1.37595 	-0.79895 	-0.83070 	-0.62180 	-0.11550 	-0.30210 	-0.23015 
-0.69165 	-0.93905 	-1.22335 	-1.29495 	-1.11465 	-1.49155 	-1.38615 	-1.47410 	-1.58610 	-1.79150 	-1.83335 	-1.83020 	-1.62230 	-1.63355 	-1.82665 	-1.95230 	-2.04265 	-0.35015 	-1.58955 	-1.64330 	-1.45620 	-0.84065 	-0.88990 	-0.66445 	-0.14405 	-0.33910 	-0.25260 
-0.69020 	-0.97145 	-1.29985 	-1.34850 	-1.14765 	-1.53640 	-1.50370 	-1.58580 	-1.64660 	-1.80655 	-1.99570 	-1.95185 	-1.69490 	-1.72495 	-1.97270 	-2.08540 	-2.15060 	-0.46375 	-1.69970 	-1.74515 	-1.53860 	-0.88355 	-0.95375 	-0.71170 	-0.17775 	-0.38200 	-0.28010 
-0.70090 	-1.01060 	-1.38905 	-1.41475 	-1.19145 	-1.58165 	-1.63635 	-1.71475 	-1.71645 	-1.81775 	-2.17215 	-2.08760 	-1.77665 	-1.81060 	-2.13065 	-2.22655 	-2.26135 	-0.56720 	-1.81805 	-1.85380 	-1.62180 	-0.92680 	-1.02145 	-0.76275 	-0.21610 	-0.43020 	-0.31255 
-0.72395 	-1.05710 	-1.49075 	-1.49440 	-1.24785 	-1.62835 	-1.78320 	-1.86030 	-1.79625 	-1.82720 	-2.36055 	-2.23640 	-1.86760 	-1.89010 	-2.29840 	-2.37375 	-2.37295 	-0.66050 	-1.94315 	-1.96770 	-1.70435 	-0.96920 	-1.09180 	-0.81625 	-0.25795 	-0.48280 	-0.34970 
-0.75905 	-1.11130 	-1.60420 	-1.58730 	-1.31805 	-1.67710 	-1.94270 	-2.02090 	-1.88590 	-1.83685 	-2.55815 	-2.39630 	-1.96710 	-1.96275 	-2.47300 	-2.52420 	-2.48300 	-0.74405 	-2.07265 	-2.08440 	-1.78410 	-1.00940 	-1.16320 	-0.87045 	-0.30185 	-0.53855 	-0.39070 
-0.80510 	-1.17315 	-1.72830 	-1.69265 	-1.40200 	-1.72820 	-2.11265 	-2.19380 	-1.98445 	-1.84825 	-2.76150 	-2.56470 	-2.07365 	-2.02745 	-2.65095 	-2.67470 	-2.58860 	-0.81810 	-2.20380 	-2.20120 	-1.85880 	-1.04565 	-1.23355 	-0.92315 	-0.34555 	-0.59555 	-0.43420 
-0.86060 	-1.24245 	-1.86140 	-1.80895 	-1.49910 	-1.78135 	-2.29055 	-2.37560 	-2.09060 	-1.86220 	-2.96715 	-2.73860 	-2.18530 	-2.08280 	-2.82870 	-2.82195 	-2.68690 	-0.88260 	-2.33345 	-2.31510 	-1.92590 	-1.07605 	-1.30040 	-0.97165 	-0.38655 	-0.65140 	-0.47810 
-0.92410 	-1.31865 	-2.00185 	-1.93470 	-1.60825 	-1.83610 	-2.47375 	-2.56295 	-2.20290 	-1.87915 	-3.17170 	-2.91495 	-2.30005 	-2.12775 	-3.00245 	-2.96265 	-2.77540 	-0.93755 	-2.45855 	-2.42310 	-1.98295 	-1.09850 	-1.36140 	-1.01340 	-0.42205 	-0.70380 	-0.51995 
-0.99385 	-1.40160 	-2.14825 	-2.06830 	-1.72820 	-1.89195 	-2.66000 	-2.75225 	-2.32030 	-1.89910 	-3.37210 	-3.09100 	-2.41600 	-2.16145 	-3.16910 	-3.09400 	-2.85190 	-0.98250 	-2.57625 	-2.52255 	-2.02760 	-1.11110 	-1.41410 	-1.04585 	-0.44945 	-0.75010 	-0.55710 
-1.06870 	-1.49120 	-2.29940 	-2.20855 	-1.85780 	-1.94930 	-2.84735 	-2.94085 	-2.44235 	-1.92190 	-3.56610 	-3.26440 	-2.53140 	-2.18370 	-3.32580 	-3.21390 	-2.91490 	-1.01740 	-2.68425 	-2.61110 	-2.05815 	-1.11230 	-1.45650 	-1.06710 	-0.46650 	-0.78825 	-0.58735 
-1.14770 	-1.58735 	-2.45465 	-2.35445 	-1.99605 	-2.00890 	-3.03435 	-3.12620 	-2.56875 	-1.94750 	-3.75180 	-3.43305 	-2.64465 	-2.19505 	-3.47050 	-3.32075 	-2.96355 	-1.04235 	-2.78070 	-2.68705 	-2.07340 	-1.10120 	-1.48720 	-1.07575 	-0.47180 	-0.81655 	-0.60885 
-1.23025 	-1.68985 	-2.61320 	-2.50515 	-2.14165 	-2.07205 	-3.21975 	-3.30625 	-2.69890 	-1.97600 	-3.92765 	-3.59510 	-2.75420 	-2.19655 	-3.60165 	-3.41345 	-2.99725 	-1.05745 	-2.86420 	-2.74920 	-2.07265 	-1.07720 	-1.50500 	-1.07080 	-0.46445 	-0.83405 	-0.62045 
-1.31545 	-1.79835 	-2.77415 	-2.65930 	-2.29315 	-2.13965 	-3.40230 	-3.47905 	-2.83180 	-2.00735 	-4.09250 	-3.74855 	-2.85860 	-2.18925 	-3.71765 	-3.49110 	-3.01580 	-1.06280 	-2.93365 	-2.79650 	-2.05560 	-1.04025 	-1.50935 	-1.05215 	-0.44435 	-0.84005 	-0.62185 
-1.40230 	-1.91140 	-2.93625 	-2.81540 	-2.44845 	-2.21225 	-3.58055 	-3.64245 	-2.96500 	-2.04160 	-4.24475 	-3.89115 	-2.95590 	-2.17385 	-3.81740 	-3.55285 	-3.01905 	-1.05825 	-2.98820 	-2.82835 	-2.02240 	-0.99090 	-1.49975 	-1.01965 	-0.41195 	-0.83460 	-0.61325 
-1.48935 	-2.02745 	-3.09770 	-2.97140 	-2.60520 	-2.28975 	-3.75285 	-3.79465 	-3.09580 	-2.07835 	-4.38305 	-4.02075 	-3.04455 	-2.15080 	-3.89995 	-3.59825 	-3.00735 	-1.04365 	-3.02725 	-2.84435 	-1.97370 	-0.93015 	-1.47625 	-0.97385 	-0.36810 	-0.81820 	-0.59565 
-1.57505 	-2.14420 	-3.25665 	-3.12525 	-2.76080 	-2.37105 	-3.91760 	-3.93385 	-3.22120 	-2.11715 	-4.50650 	-4.13565 	-3.12335 	-2.12005 	-3.96470 	-3.62715 	-2.98135 	-1.01865 	-3.05065 	-2.84465 	-1.91075 	-0.85940 	-1.43925 	-0.91570 	-0.31430 	-0.79195 	-0.57055 
-1.65785 	-2.25960 	-3.41135 	-3.27495 	-2.91255 	-2.45475 	-4.07360 	-4.05905 	-3.33850 	-2.15720 	-4.61430 	-4.23500 	-3.19180 	-2.08155 	-4.01175 	-3.64025 	-2.94275 	-0.98315 	-3.05885 	-2.83000 	-1.83550 	-0.78075 	-1.38960 	-0.84680 	-0.25250 	-0.75735 	-0.53985 
-1.73645 	-2.37170 	-3.56050 	-3.41895 	-3.05815 	-2.53890 	-4.22000 	-4.16995 	-3.44595 	-2.19835 	-4.70670 	-4.31880 	-3.25030 	-2.03555 	-4.04190 	-3.63890 	-2.89365 	-0.93730 	-3.05290 	-2.80180 	-1.75055 	-0.69655 	-1.32880 	-0.76915 	-0.18485 	-0.71625 	-0.50550 
-1.80980 	-2.47895 	-3.70325 	-3.55635 	-3.19585 	-2.62170 	-4.35685 	-4.26730 	-3.54255 	-2.24065 	-4.78450 	-4.38795 	-3.30000 	-1.98300 	-4.05665 	-3.62505 	-2.83685 	-0.88185 	-3.03430 	-2.76185 	-1.65895 	-0.60915 	-1.25860 	-0.68510 	-0.11380 	-0.67075 	-0.46965 
-1.87730 	-2.58045 	-3.83930 	-3.68650 	-3.32440 	-2.70150 	-4.48455 	-4.35255 	-3.62825 	-2.28495 	-4.84915 	-4.44415 	-3.34275 	-1.92580 	-4.05790 	-3.60105 	-2.77545 	-0.81815 	-3.00495 	-2.71250 	-1.56385 	-0.52085 	-1.18110 	-0.59720 	-0.04165 	-0.62290 	-0.43410 
-1.93865 	-2.67545 	-3.96865 	-3.80915 	-3.44295 	-2.77690 	-4.60375 	-4.42730 	-3.70305 	-2.33180 	-4.90245 	-4.48910 	-3.38025 	-1.86665 	-4.04765 	-3.56940 	-2.71235 	-0.74825 	-2.96685 	-2.65600 	-1.46850 	-0.43370 	-1.09850 	-0.50800 	0.02935 	-0.57445 	-0.40055 
-1.99380 	-2.76385 	-4.09135 	-3.92420 	-3.55085 	-2.84710 	-4.71525 	-4.49325 	-3.76730 	-2.38170 	-4.94605 	-4.52465 	-3.41420 	-1.80880 	-4.02800 	-3.53245 	-2.65025 	-0.67500 	-2.92190 	-2.59465 	-1.37580 	-0.34955 	-1.01300 	-0.41990 	0.09715 	-0.52705 	-0.37015 
-2.04295 	-2.84555 	-4.20785 	-4.03145 	-3.64770 	-2.91165 	-4.81975 	-4.55195 	-3.82125 	-2.43410 	-4.98185 	-4.55235 	-3.44585 	-1.75600 	-4.00105 	-3.49230 	-2.59150 	-0.60195 	-2.87190 	-2.53050 	-1.28840 	-0.27015 	-0.92690 	-0.33495 	0.16000 	-0.48195 	-0.34390 
-2.08655 	-2.92095 	-4.31835 	-4.13105 	-3.73335 	-2.97080 	-4.91800 	-4.60485 	-3.86540 	-2.48800 	-5.01165 	-4.57405 	-3.47605 	-1.71210 	-3.96860 	-3.45100 	-2.53830 	-0.53340 	-2.81860 	-2.46560 	-1.20880 	-0.19735 	-0.84235 	-0.25540 	0.21630 	-0.44020 	-0.32255 
-2.12500 	-2.99070 	-4.42320 	-4.22325 	-3.80780 	-3.02470 	-5.01060 	-4.65355 	-3.90060 	-2.54185 	-5.03690 	-4.59140 	-3.50515 	-1.68060 	-3.93245 	-3.41035 	-2.49270 	-0.47395 	-2.76365 	-2.40160 	-1.13915 	-0.13315 	-0.76150 	-0.18315 	0.26440 	-0.40280 	-0.30680 
-2.15890 	-3.05555 	-4.52270 	-4.30850 	-3.87130 	-3.07360 	-5.09820 	-4.69975 	-3.92795 	-2.59455 	-5.05910 	-4.60655 	-3.53310 	-1.66480 	-3.89410 	-3.37215 	-2.45650 	-0.42815 	-2.70860 	-2.34030 	-1.08145 	-0.07965 	-0.68650 	-0.12000 	0.30290 	-0.37085 	-0.29730 
-2.18855 	-3.11635 	-4.61700 	-4.38740 	-3.92435 	-3.11725 	-5.18105 	-4.74500 	-3.94895 	-2.64505 	-5.07950 	-4.62125 	-3.55975 	-1.66705 	-3.85495 	-3.33785 	-2.43120 	-0.39975 	-2.65475 	-2.28285 	-1.03735 	-0.03860 	-0.61910 	-0.06740 	0.33080 	-0.34510 	-0.29485 
-2.21420 	-3.17365 	-4.70605 	-4.46045 	-3.96740 	-3.15515 	-5.25940 	-4.79050 	-3.96500 	-2.69295 	-5.09865 	-4.63700 	-3.58435 	-1.68875 	-3.81600 	-3.30855 	-2.41780 	-0.39115 	-2.60325 	-2.23050 	-1.00780 	-0.01150 	-0.56085 	-0.02645 	0.34730 	-0.32625 	-0.29990 
-2.23605 	-3.22815 	-4.78950 	-4.52775 	-4.00100 	-3.18670 	-5.33285 	-4.83705 	-3.97775 	-2.73780 	-5.11680 	-4.65475 	-3.60645 	-1.73025 	-3.77775 	-3.28475 	-2.41625 	-0.40345 	-2.55465 	-2.18365 	-0.99310 	0.00085 	-0.51265 	0.00260 	0.35250 	-0.31460 	-0.31275 
-2.25395 	-3.27970 	-4.86655 	-4.58930 	-4.02590 	-3.21145 	-5.40080 	-4.88445 	-3.98860 	-2.77950 	-5.13325 	-4.67460 	-3.62545 	-1.79080 	-3.74020 	-3.26650 	-2.42575 	-0.43610 	-2.50925 	-2.14240 	-0.99270 	-0.00165 	-0.47475 	0.02000 	0.34685 	-0.31020 	-0.33340 
-2.26755 	-3.32815 	-4.93620 	-4.64455 	-4.04330 	-3.22975 	-5.46205 	-4.93185 	-3.99945 	-2.81795 	-5.14695 	-4.69595 	-3.64110 	-1.86865 	-3.70285 	-3.25295 	-2.44490 	-0.48770 	-2.46665 	-2.10635 	-1.00515 	-0.01870 	-0.44675 	0.02660 	0.33150 	-0.31265 	-0.36125 
-2.27625 	-3.37255 	-4.99700 	-4.69275 	-4.05455 	-3.24230 	-5.51495 	-4.97770 	-4.01180 	-2.85320 	-5.15600 	-4.71730 	-3.65360 	-1.96150 	-3.66460 	-3.24280 	-2.47160 	-0.55650 	-2.42605 	-2.07455 	-1.02825 	-0.04925 	-0.42765 	0.02385 	0.30805 	-0.32110 	-0.39495 
-2.27910 	-3.41135 	-5.04710 	-4.73270 	-4.06110 	-3.25030 	-5.55755 	-5.01975 	-4.02690 	-2.88535 	-5.15800 	-4.73635 	-3.66350 	-2.06660 	-3.62370 	-3.23390 	-2.50355 	-0.64060 	-2.38600 	-2.04535 	-1.05930 	-0.09190 	-0.41580 	0.01385 	0.27855 	-0.33410 	-0.43270 
-2.27465 	-3.44255 	-5.08430 	-4.76300 	-4.06400 	-3.25465 	-5.58750 	-5.05530 	-4.04525 	-2.91460 	-5.15010 	-4.75035 	-3.67160 	-2.18110 	-3.57800 	-3.22360 	-2.53830 	-0.73835 	-2.34465 	-2.01675 	-1.09520 	-0.14510 	-0.40885 	-0.00120 	0.24525 	-0.34960 	-0.47175 
-2.26140 	-3.46360 	-5.10650 	-4.78210 	-4.06390 	-3.25595 	-5.60245 	-5.08185 	-4.06635 	-2.94140 	-5.12940 	-4.75655 	-3.67875 	-2.30180 	-3.52490 	-3.20900 	-2.57355 	-0.84820 	-2.29995 	-1.98660 	-1.13295 	-0.20680 	-0.40420 	-0.01870 	0.21040 	-0.36525 	-0.50900 
-2.23770 	-3.47175 	-5.11170 	-4.78860 	-4.06080 	-3.25440 	-5.60005 	-5.09675 	-4.08880 	-2.96615 	-5.09300 	-4.75210 	-3.68580 	-2.42510 	-3.46215 	-3.18750 	-2.60750 	-0.96895 	-2.24970 	-1.95275 	-1.17005 	-0.27540 	-0.39940 	-0.03625 	0.17620 	-0.37875 	-0.54125 
-2.20210 	-3.46445 	-5.09820 	-4.78150 	-4.05465 	-3.24995 	-5.57865 	-5.09820 	-4.11075 	-2.98945 	-5.03870 	-4.73510 	-3.69355 	-2.54705 	-3.38770 	-3.15685 	-2.63890 	-1.09925 	-2.19225 	-1.91335 	-1.20450 	-0.34905 	-0.39215 	-0.05190 	0.14425 	-0.38765 	-0.56570 
-2.15365 	-3.43980 	-5.06530 	-4.76045 	-4.04560 	-3.24265 	-5.53725 	-5.08525 	-4.13040 	-3.01165 	-4.96495 	-4.70455 	-3.70295 	-2.66360 	-3.30035 	-3.11575 	-2.66715 	-1.23810 	-2.12640 	-1.86705 	-1.23515 	-0.42635 	-0.38060 	-0.06415 	0.11570 	-0.39035 	-0.58000 
-2.09205 	-3.39650 	-5.01280 	-4.72575 	-4.03395 	-3.23250 	-5.47560 	-5.05765 	-4.14625 	-3.03340 	-4.87135 	-4.66030 	-3.71480 	-2.77095 	-3.19930 	-3.06375 	-2.69240 	-1.38460 	-2.05155 	-1.81310 	-1.26155 	-0.50600 	-0.36360 	-0.07190 	0.09135 	-0.38545 	-0.58260 
-2.01750 	-3.33410 	-4.94140 	-4.67820 	-4.02035 	-3.21950 	-5.39440 	-5.01590 	-4.15750 	-3.05555 	-4.75790 	-4.60295 	-3.72960 	-2.86585 	-3.08470 	-3.00075 	-2.71480 	-1.53770 	-1.96750 	-1.75100 	-1.28350 	-0.58690 	-0.34020 	-0.07450 	0.07160 	-0.37185 	-0.57230 
-1.93085 	-3.25310 	-4.85230 	-4.61900 	-4.00550 	-3.20395 	-5.29465 	-4.96085 	-4.16365 	-3.07930 	-4.62550 	-4.53355 	-3.74725 	-2.94610 	-2.95670 	-2.92740 	-2.73485 	-1.69650 	-1.87425 	-1.68060 	-1.30095 	-0.66780 	-0.30990 	-0.07140 	0.05690 	-0.34885 	-0.54845 
-1.83340 	-3.15470 	-4.74715 	-4.54965 	-3.98995 	-3.18595 	-5.17770 	-4.89360 	-4.16465 	-3.10575 	-4.47525 	-4.45330 	-3.76700 	-3.01055 	-2.81610 	-2.84430 	-2.75270 	-1.86010 	-1.77195 	-1.60185 	-1.31395 	-0.74755 	-0.27225 	-0.06200 	0.04760 	-0.31585 	-0.51060 
-1.72700 	-3.04100 	-4.62820 	-4.47165 	-3.97435 	-3.16615 	-5.04545 	-4.81560 	-4.16085 	-3.13640 	-4.30875 	-4.36360 	-3.78775 	-3.05950 	-2.66370 	-2.75235 	-2.76835 	-2.02770 	-1.66095 	-1.51490 	-1.32235 	-0.82500 	-0.22715 	-0.04620 	0.04390 	-0.27245 	-0.45865 
-1.61385 	-2.91470 	-4.49795 	-4.38690 	-3.95910 	-3.14505 	-4.89980 	-4.72815 	-4.15300 	-3.17185 	-4.12780 	-4.26590 	-3.80795 	-3.09420 	-2.50065 	-2.65230 	-2.78150 	-2.19825 	-1.54170 	-1.41995 	-1.32595 	-0.89950 	-0.17505 	-0.02395 	0.04585 	-0.21885 	-0.39330 
-1.49640 	-2.77925 	-4.35900 	-4.29725 	-3.94470 	-3.12330 	-4.74295 	-4.63305 	-4.14180 	-3.21220 	-3.93445 	-4.16130 	-3.82650 	-3.11690 	-2.32830 	-2.54515 	-2.79200 	-2.37085 	-1.41485 	-1.31755 	-1.32490 	-0.97050 	-0.11655 	0.00430 	0.05285 	-0.15555 	-0.31575 
-1.37715 	-2.63830 	-4.21420 	-4.20445 	-3.93120 	-3.10115 	-4.57700 	-4.53185 	-4.12810 	-3.25655 	-3.73055 	-4.05080 	-3.84185 	-3.13020 	-2.14785 	-2.43160 	-2.79935 	-2.54400 	-1.28120 	-1.20830 	-1.31905 	-1.03770 	-0.05270 	0.03785 	0.06415 	-0.08355 	-0.22790 
-1.25820 	-2.49525 	-4.06585 	-4.11010 	-3.91855 	-3.07870 	-4.40380 	-4.42575 	-4.11205 	-3.30315 	-3.51810 	-3.93530 	-3.85260 	-3.13680 	-1.96060 	-2.31220 	-2.80300 	-2.71570 	-1.14130 	-1.09280 	-1.30845 	-1.10085 	0.01550 	0.07595 	0.07905 	-0.00420 	-0.13175 
-1.14135 	-2.35345 	-3.91585 	-4.01505 	-3.90580 	-3.05550 	-4.22470 	-4.31545 	-4.09350 	-3.34935 	-3.29830 	-3.81490 	-3.85695 	-3.13870 	-1.76740 	-2.18735 	-2.80225 	-2.88320 	-0.99570 	-0.97150 	-1.29275 	-1.15925 	0.08710 	0.11800 	0.09680 	0.08140 	-0.02930 
-1.02770 	-2.21535 	-3.76535 	-3.91970 	-3.89185 	-3.03090 	-4.04060 	-4.20080 	-4.07175 	-3.39185 	-3.07220 	-3.68925 	-3.85290 	-3.13720 	-1.56880 	-2.05685 	-2.79605 	-3.04305 	-0.84470 	-0.84470 	-1.27160 	-1.21185 	0.16155 	0.16365 	0.11700 	0.17210 	0.07760 
-0.91765 	-2.08305 	-3.61495 	-3.82365 	-3.87490 	-3.00415 	-3.85170 	-4.08120 	-4.04590 	-3.42715 	-2.84020 	-3.55790 	-3.83865 	-3.13265 	-1.36500 	-1.92050 	-2.78335 	-3.19180 	-0.68830 	-0.71260 	-1.24435 	-1.25760 	0.23845 	0.21275 	0.13960 	0.26710 	0.18730 
-0.81135 	-1.95755 	-3.46460 	-3.72615 	-3.85300 	-2.97435 	-3.65780 	-3.95525 	-4.01510 	-3.45185 	-2.60235 	-3.41975 	-3.81285 	-3.12505 	-1.15610 	-1.77795 	-2.76310 	-3.32625 	-0.52655 	-0.57535 	-1.21050 	-1.29545 	0.31765 	0.26520 	0.16430 	0.36525 	0.29840 
-0.70860 	-1.83945 	-3.31390 	-3.62590 	-3.82430 	-2.94115 	-3.45855 	-3.82165 	-3.97845 	-3.46340 	-2.35865 	-3.27415 	-3.77430 	-3.11415 	-0.94215 	-1.62890 	-2.73440 	-3.44430 	-0.35975 	-0.43335 	-1.16970 	-1.32495 	0.39875 	0.32070 	0.19085 	0.46545 	0.40915 
-0.60910 	-1.72855 	-3.16225 	-3.52175 	-3.78685 	-2.90415 	-3.25335 	-3.67895 	-3.93520 	-3.46045 	-2.10890 	-3.12020 	-3.72235 	-3.10015 	-0.72340 	-1.47315 	-2.69660 	-3.54450 	-0.18815 	-0.28700 	-1.12185 	-1.34610 	0.48135 	0.37900 	0.21870 	0.56640 	0.51795 
-0.51270 	-1.62420 	-3.00900 	-3.41240 	-3.73925 	-2.86365 	-3.04190 	-3.52605 	-3.88455 	-3.44265 	-1.85300 	-2.95735 	-3.65645 	-3.08365 	-0.50010 	-1.31065 	-2.64930 	-3.62640 	-0.01240 	-0.13680 	-1.06710 	-1.35925 	0.56505 	0.43935 	0.24715 	0.66665 	0.62305 
-0.41935 	-1.52540 	-2.85340 	-3.29690 	-3.68035 	-2.82025 	-2.82390 	-3.36215 	-3.82580 	-3.41105 	-1.59105 	-2.78495 	-3.57660 	-3.06575 	-0.27270 	-1.14140 	-2.59210 	-3.68945 	0.16710 	0.01670 	-1.00545 	-1.36495 	0.64970 	0.50115 	0.27555 	0.76495 	0.72310 
-0.32925 	-1.43080 	-2.69475 	-3.17450 	-3.60945 	-2.77465 	-2.59925 	-3.18700 	-3.75815 	-3.36700 	-1.32305 	-2.60270 	-3.48285 	-3.04755 	-0.04160 	-0.96525 	-2.52480 	-3.73335 	0.34960 	0.17320 	-0.93695 	-1.36375 	0.73505 	0.56415 	0.30330 	0.86040 	0.81685 
-0.24265 	-1.33875 	-2.53255 	-3.04490 	-3.52670 	-2.72770 	-2.36795 	-3.00080 	-3.68110 	-3.31235 	-1.04910 	-2.41035 	-3.37550 	-3.02975 	0.19280 	-0.78215 	-2.44695 	-3.75730 	0.53485 	0.33265 	-0.86145 	-1.35585 	0.82160 	0.62820 	0.33025 	0.95235 	0.90375 
-0.15990 	-1.24745 	-2.36600 	-2.90805 	-3.43255 	-2.67970 	-2.13015 	-2.80410 	-3.59425 	-3.24820 	-0.76945 	-2.20785 	-3.25505 	-3.01220 	0.43055 	-0.59170 	-2.35825 	-3.76015 	0.72265 	0.49520 	-0.77860 	-1.34110 	0.90995 	0.69375 	0.35685 	1.04120 	0.98390 
-0.08105 	-1.15510 	-2.19455 	-2.76395 	-3.32775 	-2.63025 	-1.88595 	-2.59770 	-3.49735 	-3.17530 	-0.48400 	-1.99545 	-3.12200 	-2.99330 	0.67170 	-0.39345 	-2.25830 	-3.74095 	0.91325 	0.66135 	-0.68800 	-1.31925 	1.00140 	0.76155 	0.38385 	1.12780 	1.05845 
-0.00595 	-1.05960 	-2.01725 	-2.61255 	-3.21300 	-2.57865 	-1.63535 	-2.38250 	-3.38970 	-3.09370 	-0.19275 	-1.77360 	-2.97710 	-2.97050 	0.91665 	-0.18710 	-2.14675 	-3.69875 	1.10695 	0.83170 	-0.58935 	-1.28985 	1.09740 	0.83260 	0.41250 	1.21385 	1.12935 
0.06560 	-0.95945 	-1.83340 	-2.45375 	-3.08890 	-2.52390 	-1.37840 	-2.15910 	-3.27070 	-3.00315 	0.10440 	-1.54295 	-2.82110 	-2.94070 	1.16575 	0.02755 	-2.02360 	-3.63360 	1.30420 	1.00670 	-0.48250 	-1.25265 	1.19945 	0.90805 	0.44410 	1.30115 	1.19875 
0.13385 	-0.85330 	-1.64235 	-2.28760 	-2.95585 	-2.46505 	-1.11500 	-1.92815 	-3.13950 	-2.90325 	0.40745 	-1.30435 	-2.65480 	-2.90105 	1.41920 	0.25030 	-1.88895 	-3.54635 	1.50530 	1.18670 	-0.36775 	-1.20770 	1.30855 	0.98885 	0.48005 	1.39160 	1.26900 
0.19915 	-0.74065 	-1.44385 	-2.11400 	-2.81405 	-2.40150 	-0.84540 	-1.69010 	-2.99530 	-2.79375 	0.71610 	-1.05880 	-2.47915 	-2.84960 	1.67710 	0.48070 	-1.74350 	-3.43905 	1.71015 	1.37165 	-0.24570 	-1.15535 	1.42520 	1.07545 	0.52120 	1.48670 	1.34210 
0.26185 	-0.62145 	-1.23750 	-1.93295 	-2.66375 	-2.33285 	-0.56970 	-1.44510 	-2.83770 	-2.67440 	1.03015 	-0.80710 	-2.29450 	-2.78575 	1.93940 	0.71795 	-1.58805 	-3.31430 	1.91860 	1.56120 	-0.11715 	-1.09640 	1.54945 	1.16820 	0.56835 	1.58760 	1.41950 
0.32245 	-0.49595 	-1.02350 	-1.74445 	-2.50520 	-2.25860 	-0.28800 	-1.19340 	-2.66650 	-2.54585 	1.34900 	-0.55000 	-2.10125 	-2.71015 	2.20565 	0.96115 	-1.42355 	-3.17525 	2.13020 	1.75470 	0.01685 	-1.03150 	1.68080 	1.26700 	0.62195 	1.69465 	1.50205 
0.38125 	-0.36500 	-0.80200 	-1.54850 	-2.33890 	-2.17835 	-0.00060 	-0.93535 	-2.48190 	-2.40930 	1.67220 	-0.28820 	-1.89960 	-2.62480 	2.47560 	1.20930 	-1.25080 	-3.02520 	2.34440 	1.95140 	0.15530 	-0.96155 	1.81830 	1.37160 	0.68205 	1.80795 	1.58985 
0.43870 	-0.22965 	-0.57345 	-1.34560 	-2.16545 	-2.09180 	0.29205 	-0.67160 	-2.28435 	-2.26675 	1.99895 	-0.02220 	-1.68955 	-2.53240 	2.74860 	1.46140 	-1.07095 	-2.86745 	2.56045 	2.15035 	0.29710 	-0.88770 	1.96055 	1.48135 	0.74840 	1.92685 	1.68245 
0.49515 	-0.09120 	-0.33870 	-1.13615 	-1.98555 	-1.99890 	0.58925 	-0.40325 	-2.07450 	-2.12045 	2.32820 	0.24710 	-1.47170 	-2.43610 	3.02385 	1.71635 	-0.88530 	-2.70545 	2.77750 	2.35020 	0.44100 	-0.81120 	2.10610 	1.59525 	0.82055 	2.05035 	1.77865 
0.55065 	0.04890 	-0.09880 	-0.92080 	-1.79965 	-1.89955 	0.89010 	-0.13175 	-1.85305 	-1.97285 	2.65865 	0.51865 	-1.24635 	-2.33905 	3.30025 	1.97265 	-0.69550 	-2.54255 	2.99445 	2.54985 	0.58580 	-0.73335 	2.25315 	1.71235 	0.89775 	2.17730 	1.87705 
0.60550 	0.18955 	0.14515 	-0.70020 	-1.60810 	-1.79410 	1.19360 	0.14165 	-1.62060 	-1.82585 	2.98895 	0.79125 	-1.01425 	-2.24350 	3.57680 	2.22930 	-0.50320 	-2.38195 	3.21040 	2.74810 	0.73025 	-0.65535 	2.40030 	1.83165 	0.97935 	2.30640 	1.97600 
0.66010 	0.33015 	0.39245 	-0.47460 	-1.41080 	-1.68290 	1.49935 	0.41605 	-1.37805 	-1.68115 	3.31825 	1.06410 	-0.77570 	-2.15085 	3.85270 	2.48515 	-0.31010 	-2.22625 	3.42460 	2.94410 	0.87355 	-0.57810 	2.54640 	1.95235 	1.06495 	2.43650 	2.07415 
0.71495 	0.47050 	0.64245 	-0.24410 	-1.20735 	-1.56650 	1.80685 	0.69095 	-1.12615 	-1.54005 	3.64575 	1.33640 	-0.53125 	-2.06100 	4.12715 	2.73950 	-0.11765 	-2.07740 	3.63665 	3.13720 	1.01520 	-0.50210 	2.69080 	2.07375 	1.15415 	2.56640 	2.16990 
0.77065 	0.61075 	0.89495 	-0.00880 	-0.99780 	-1.44530 	2.11600 	0.96610 	-0.86620 	-1.40360 	3.97080 	1.60790 	-0.28170 	-1.97285 	4.39960 	2.99185 	0.07310 	-1.93630 	3.84620 	3.32715 	1.15480 	-0.42745 	2.83285 	2.19530 	1.24655 	2.69485 	2.26135 
0.82750 	0.75130 	1.14945 	0.23105 	-0.78215 	-1.31975 	2.42645 	1.24155 	-0.59975 	-1.27255 	4.29285 	1.87820 	-0.02830 	-1.88440 	4.66950 	3.24155 	0.26140 	-1.80295 	4.05290 	3.51355 	1.29210 	-0.35410 	2.97200 	2.31615 	1.34135 	2.82010 	2.34630 
0.88550 	0.89245 	1.40545 	0.47475 	-0.56115 	-1.19025 	2.73760 	1.51670 	-0.32910 	-1.14685 	4.61110 	2.14720 	0.22660 	-1.79350 	4.93575 	3.48795 	0.44640 	-1.67635 	4.25610 	3.69595 	1.42690 	-0.28190 	3.10765 	2.43530 	1.43750 	2.94015 	2.42225 
0.94440 	1.03450 	1.66235 	0.72120 	-0.33590 	-1.05725 	3.04855 	1.79100 	-0.05645 	-1.02605 	4.92470 	2.41435 	0.48030 	-1.69800 	5.19760 	3.73045 	0.62765 	-1.55460 	4.45520 	3.87395 	1.55900 	-0.21025 	3.23910 	2.55170 	1.53375 	3.05295 	2.48695 
1.00395 	1.17790 	1.91950 	0.96935 	-0.10780 	-0.92110 	3.35860 	2.06370 	0.21565 	-0.90870 	5.23290 	2.67950 	0.73005 	-1.59615 	5.45435 	3.96850 	0.80495 	-1.43505 	4.64980 	4.04730 	1.68855 	-0.13855 	3.36600 	2.66440 	1.62895 	3.15665 	2.53850 
1.06420 	1.32305 	2.17640 	1.21810 	0.12155 	-0.78200 	3.66690 	2.33430 	0.48525 	-0.79300 	5.53525 	2.94270 	0.97360 	-1.48710 	5.70535 	4.20190 	0.97875 	-1.31470 	4.83970 	4.21605 	1.81590 	-0.06570 	3.48830 	2.77295 	1.72230 	3.25015 	2.57605 
1.12515 	1.47045 	2.43260 	1.46670 	0.35090 	-0.64040 	3.97290 	2.60275 	0.75065 	-0.67720 	5.83165 	3.20455 	1.20975 	-1.37050 	5.95060 	4.43110 	1.15010 	-1.19065 	5.02515 	4.38070 	1.94185 	0.00970 	3.60620 	2.87745 	1.81345 	3.33300 	2.59960 
1.18710 	1.62045 	2.68780 	1.71430 	0.57930 	-0.49690 	4.27625 	2.86925 	1.01085 	-0.55985 	6.12225 	3.46570 	1.43790 	-1.24695 	6.19020 	4.65660 	1.32025 	-1.06050 	5.20640 	4.54195 	2.06720 	0.08890 	3.72035 	2.97800 	1.90210 	3.40520 	2.60985 
1.24995 	1.77305 	2.94140 	1.96035 	0.80600 	-0.35245 	4.57635 	3.13385 	1.26525 	-0.43990 	6.40690 	3.72700 	1.65830 	-1.11755 	6.42410 	4.87900 	1.49080 	-0.92280 	5.38370 	4.70030 	2.19290 	0.17290 	3.83120 	3.07515 	1.98840 	3.46715 	2.60790 
1.31340 	1.92755 	3.19245 	2.20385 	1.03010 	-0.20830 	4.87235 	3.39655 	1.51310 	-0.31710 	6.68540 	3.98860 	1.87125 	-0.98335 	6.65225 	5.09875 	1.66280 	-0.77715 	5.55715 	4.85595 	2.31945 	0.26220 	3.93885 	3.16905 	2.07230 	3.51940 	2.59475 
1.37680 	2.08250 	3.43950 	2.44350 	1.25030 	-0.06590 	5.16295 	3.65650 	1.75340 	-0.19155 	6.95695 	4.25005 	2.07710 	-0.84520 	6.87400 	5.31550 	1.83660 	-0.62410 	5.72620 	5.00880 	2.44705 	0.35675 	4.04305 	3.25980 	2.15365 	3.56210 	2.57140 
1.43900 	2.23580 	3.68055 	2.67745 	1.46495 	0.07320 	5.44640 	3.91220 	1.98475 	-0.06365 	7.22005 	4.50990 	2.27580 	-0.70345 	7.08835 	5.52855 	2.01175 	-0.46540 	5.89000 	5.15800 	2.57525 	0.45575 	4.14330 	3.34700 	2.23225 	3.59535 	2.53820 
1.49850 	2.38490 	3.91335 	2.90370 	1.67180 	0.20760 	5.72045 	4.16140 	2.20545 	0.06595 	7.47285 	4.76580 	2.46715 	-0.55835 	7.29385 	5.73640 	2.18715 	-0.30380 	6.04725 	5.30245 	2.70340 	0.55820 	4.23835 	3.43005 	2.30760 	3.61895 	2.49565 
1.55395 	2.52680 	4.13550 	3.11990 	1.86850 	0.33625 	5.98280 	4.40185 	2.41365 	0.19680 	7.71335 	5.01485 	2.65080 	-0.41015 	7.48890 	5.93715 	2.36105 	-0.14240 	6.19665 	5.44065 	2.83030 	0.66260 	4.32705 	3.50830 	2.37925 	3.63260 	2.44380 
1.60370 	2.65860 	4.34465 	3.32395 	2.05300 	0.45840 	6.23105 	4.63090 	2.60805 	0.32835 	7.93935 	5.25400 	2.82680 	-0.25935 	7.67190 	6.12895 	2.53185 	0.01545 	6.33670 	5.57120 	2.95485 	0.76745 	4.40825 	3.58100 	2.44645 	3.63620 	2.38290 
1.64620 	2.77750 	4.53875 	3.51420 	2.22355 	0.57320 	6.46320 	4.84635 	2.78775 	0.46005 	8.14915 	5.48025 	2.99565 	-0.10675 	7.84145 	6.30970 	2.69810 	0.16725 	6.46640 	5.69280 	3.07610 	0.87150 	4.48100 	3.64760 	2.50895 	3.62990 	2.31340 
1.68005 	2.88135 	4.71635 	3.68940 	2.37885 	0.68035 	6.67775 	5.04680 	2.95260 	0.59120 	8.34160 	5.69130 	3.15830 	0.04645 	7.99665 	6.47825 	2.85915 	0.31150 	6.58505 	5.80475 	3.19365 	0.97380 	4.54485 	3.70815 	2.56645 	3.61425 	2.23615 
1.70415 	2.96855 	4.87655 	3.84915 	2.51810 	0.77910 	6.87375 	5.23115 	3.10255 	0.72100 	8.51600 	5.88555 	3.31610 	0.19885 	8.13690 	6.63365 	3.01470 	0.44800 	6.69250 	5.90670 	3.30725 	1.07375 	4.60010 	3.76300 	2.61920 	3.59015 	2.15235 
1.71790 	3.03850 	5.01910 	3.99335 	2.64105 	0.86915 	7.05110 	5.39930 	3.23775 	0.84800 	8.67260 	6.06230 	3.47020 	0.34890 	8.26235 	6.77575 	3.16475 	0.57750 	6.78915 	5.99885 	3.41720 	1.17110 	4.64735 	3.81290 	2.66755 	3.55910 	2.06370 
1.72125 	3.09145 	5.14460 	4.12290 	2.74775 	0.95005 	7.21010 	5.55180 	3.35825 	0.97100 	8.81210 	6.22180 	3.62155 	0.49510 	8.37370 	6.90485 	3.30965 	0.70055 	6.87565 	6.08180 	3.52380 	1.26585 	4.68785 	3.85895 	2.71230 	3.52290 	1.97235 
1.71430 	3.12845 	5.25410 	4.23895 	2.83910 	1.02150 	7.35175 	5.68980 	3.46425 	1.08860 	8.93575 	6.36510 	3.77070 	0.63580 	8.47170 	7.02175 	3.44930 	0.81740 	6.95315 	6.15640 	3.62735 	1.35795 	4.72310 	3.90250 	2.75435 	3.48350 	1.88050 
1.69795 	3.15130 	5.34900 	4.34305 	2.91650 	1.08330 	7.47735 	5.81490 	3.55645 	1.19985 	9.04520 	6.49400 	3.91785 	0.76965 	8.55775 	7.12755 	3.58385 	0.92740 	7.02290 	6.22370 	3.72815 	1.44740 	4.75480 	3.94500 	2.79470 	3.44300 	1.79030 
1.67340 	3.16220 	5.43130 	4.43705 	2.98185 	1.13550 	7.58845 	5.92905 	3.63595 	1.30425 	9.14235 	6.61075 	4.06310 	0.89565 	8.63340 	7.22380 	3.71345 	1.02925 	7.08620 	6.28495 	3.82650 	1.53425 	4.78485 	3.98785 	2.83445 	3.40335 	1.70385 
1.64225 	3.16420 	5.50290 	4.52290 	3.03780 	1.17870 	7.68690 	6.03430 	3.70475 	1.40185 	9.22930 	6.71800 	4.20665 	1.01320 	8.70030 	7.31220 	3.83870 	1.12130 	7.14465 	6.34160 	3.92275 	1.61870 	4.81490 	4.03245 	2.87500 	3.36635 	1.62270 
1.60635 	3.16035 	5.56600 	4.60245 	3.08680 	1.21385 	7.77460 	6.13260 	3.76485 	1.49350 	9.30810 	6.81850 	4.34890 	1.12225 	8.76020 	7.39475 	3.96060 	1.20265 	7.19975 	6.39530 	4.01755 	1.70105 	4.84685 	4.07995 	2.91765 	3.33370 	1.54850 
1.56755 	3.15380 	5.62270 	4.67735 	3.13125 	1.24260 	7.85345 	6.22585 	3.81880 	1.58045 	9.38055 	6.91465 	4.49025 	1.22355 	8.81490 	7.47340 	4.08035 	1.27300 	7.25305 	6.44770 	4.11170 	1.78220 	4.88230 	4.13145 	2.96380 	3.30675 	1.48225 
1.52765 	3.14755 	5.67485 	4.74855 	3.17320 	1.26690 	7.92505 	6.31535 	3.86875 	1.66430 	9.44840 	7.00840 	4.63115 	1.31850 	8.86595 	7.54975 	4.19935 	1.33345 	7.30595 	6.50025 	4.20630 	1.86310 	4.92270 	4.18790 	3.01475 	3.28670 	1.42495 
1.48835 	3.14405 	5.72385 	4.81695 	3.21375 	1.28880 	7.99075 	6.40200 	3.91630 	1.74670 	9.51260 	7.10075 	4.77175 	1.40925 	8.91465 	7.62510 	4.31870 	1.38625 	7.35955 	6.55425 	4.30230 	1.94540 	4.96905 	4.24980 	3.07160 	3.27420 	1.37705 
1.45070 	3.14500 	5.77065 	4.88250 	3.25350 	1.31055 	8.05120 	6.48615 	3.96255 	1.82940 	9.57350 	7.19170 	4.91155 	1.49785 	8.96140 	7.70005 	4.43900 	1.43440 	7.41435 	6.61030 	4.40040 	2.03040 	5.02165 	4.31720 	3.13475 	3.26950 	1.33855 
1.41500 	3.15090 	5.81520 	4.94465 	3.29225 	1.33405 	8.10650 	6.56730 	4.00790 	1.91400 	9.63080 	7.28030 	5.04965 	1.58660 	9.00625 	7.77440 	4.56035 	1.48135 	7.47020 	6.66855 	4.50080 	2.11935 	5.08020 	4.38955 	3.20400 	3.27205 	1.30865 
1.38130 	3.16145 	5.85710 	5.00235 	3.32950 	1.36085 	8.15595 	6.64425 	4.05225 	2.00160 	9.68335 	7.36465 	5.18450 	1.67740 	9.04850 	7.84710 	4.68200 	1.53070 	7.52640 	6.72840 	4.60325 	2.21280 	5.14360 	4.46590 	3.27865 	3.28090 	1.28640 
1.34885 	3.17535 	5.89505 	5.05450 	3.36485 	1.39175 	8.19830 	6.71545 	4.09520 	2.09265 	9.72950 	7.44235 	5.31425 	1.77165 	9.08695 	7.91665 	4.80275 	1.58580 	7.58165 	6.78865 	4.70705 	2.31090 	5.21035 	4.54485 	3.35750 	3.29460 	1.27025 
1.31700 	3.19055 	5.92770 	5.09990 	3.39805 	1.42710 	8.23195 	6.77905 	4.13660 	2.18705 	9.76735 	7.51085 	5.43690 	1.87045 	9.12015 	7.98140 	4.92120 	1.64995 	7.63435 	6.84775 	4.81110 	2.41315 	5.27845 	4.62480 	3.43890 	3.31180 	1.25880 
1.28485 	3.20495 	5.95345 	5.13760 	3.42920 	1.46665 	8.25540 	6.83335 	4.17640 	2.28385 	9.79515 	7.56815 	5.55070 	1.97460 	9.14675 	8.03960 	5.03575 	1.72590 	7.68290 	6.90420 	4.91420 	2.51885 	5.34600 	4.70430 	3.52120 	3.33105 	1.25085 
1.25185 	3.21620 	5.97095 	5.16685 	3.45850 	1.50975 	8.26725 	6.87695 	4.21495 	2.38185 	9.81125 	7.61235 	5.65430 	2.08475 	9.16535 	8.08975 	5.14505 	1.81595 	7.72570 	6.95655 	5.01510 	2.62700 	5.41105 	4.78175 	3.60280 	3.35090 	1.24520 
1.21755 	3.22200 	5.97880 	5.18705 	3.48585 	1.55525 	8.26605 	6.90845 	4.25265 	2.47985 	9.81425 	7.64215 	5.74645 	2.20100 	9.17485 	8.13055 	5.24775 	1.92130 	7.76135 	7.00330 	5.11255 	2.73660 	5.47155 	4.85580 	3.68210 	3.37015 	1.24100 
1.18130 	3.22020 	5.97565 	5.19730 	3.51075 	1.60170 	8.25065 	6.92670 	4.28935 	2.57665 	9.80275 	7.65650 	5.82580 	2.32310 	9.17405 	8.16080 	5.34290 	2.04200 	7.78840 	7.04285 	5.20490 	2.84645 	5.52560 	4.92485 	3.75765 	3.38755 	1.23710 
1.14255 	3.20860 	5.96005 	5.19640 	3.53160 	1.64760 	8.21965 	6.93020 	4.32440 	2.67130 	9.77530 	7.65400 	5.89085 	2.44970 	9.16150 	8.17920 	5.42925 	2.17635 	7.80535 	7.07355 	5.29060 	2.95520 	5.57115 	4.98725 	3.82780 	3.40155 	1.23220 
1.10025 	3.18500 	5.93025 	5.18275 	3.54605 	1.69120 	8.17165 	6.91720 	4.35615 	2.76285 	9.73020 	7.63345 	5.93970 	2.57870 	9.13580 	8.18425 	5.50560 	2.32130 	7.81040 	7.09350 	5.36770 	3.06120 	5.60620 	5.04125 	3.89120 	3.41050 	1.22475 
1.05345 	3.14745 	5.88455 	5.15440 	3.55115 	1.73085 	8.10495 	6.88550 	4.38245 	2.85000 	9.66565 	7.59325 	5.97055 	2.70720 	9.09520 	8.17455 	5.57085 	2.47270 	7.80195 	7.10090 	5.43435 	3.16280 	5.62890 	5.08475 	3.94630 	3.41275 	1.21290 
1.00090 	3.09445 	5.82145 	5.10950 	3.54370 	1.76500 	8.01825 	6.83320 	4.40085 	2.93065 	9.57985 	7.53220 	5.98150 	2.83185 	9.03815 	8.14875 	5.62385 	2.62560 	7.77830 	7.09380 	5.48880 	3.25810 	5.63765 	5.11615 	3.99170 	3.40655 	1.19495 
0.94170 	3.02525 	5.73985 	5.04650 	3.52145 	1.79230 	7.91055 	6.75880 	4.40950 	3.00175 	9.47175 	7.44950 	5.97155 	2.94945 	8.96330 	8.10595 	5.66365 	2.77525 	7.73820 	7.07100 	5.52980 	3.34540 	5.63125 	5.13380 	4.02630 	3.39045 	1.16925 
0.87520 	2.94005 	5.63935 	4.96475 	3.48280 	1.81125 	7.78165 	6.66185 	4.40715 	3.05965 	9.34060 	7.34520 	5.94035 	3.05715 	8.87010 	8.04560 	5.68970 	2.91745 	7.68080 	7.03145 	5.55660 	3.42325 	5.60935 	5.13680 	4.04935 	3.36345 	1.13470 
0.80150 	2.84010 	5.52055 	4.86460 	3.42760 	1.82050 	7.63225 	6.54295 	4.39320 	3.10015 	9.18680 	7.22030 	5.88855 	3.15310 	8.75825 	7.96775 	5.70180 	3.04885 	7.60590 	6.97510 	5.56900 	3.49055 	5.57205 	5.12490 	4.06060 	3.32495 	1.09080 
0.72100 	2.72750 	5.38465 	4.74720 	3.35640 	1.81905 	7.46360 	6.40390 	4.36755 	3.11985 	9.01120 	7.07645 	5.81765 	3.23615 	8.62840 	7.87300 	5.70010 	3.16710 	7.51415 	6.90245 	5.56730 	3.54675 	5.52010 	5.09820 	4.06035 	3.27530 	1.03785 
0.63495 	2.60480 	5.23340 	4.61435 	3.27025 	1.80640 	7.27790 	6.24705 	4.33000 	3.11655 	8.81565 	6.91580 	5.72970 	3.30615 	8.48175 	7.76225 	5.68510 	3.27080 	7.40650 	6.81445 	5.55225 	3.59195 	5.45505 	5.05770 	4.04925 	3.21515 	0.97695 
0.54470 	2.47485 	5.06900 	4.46800 	3.17070 	1.78245 	7.07735 	6.07490 	4.28000 	3.08995 	8.60215 	6.74070 	5.62675 	3.36320 	8.31965 	7.63670 	5.65725 	3.35915 	7.28445 	6.71250 	5.52490 	3.62640 	5.37845 	5.00470 	4.02845 	3.14600 	0.90975 
0.45205 	2.34030 	4.89345 	4.31025 	3.05935 	1.74780 	6.86425 	5.88985 	4.21705 	3.04150 	8.37280 	6.55330 	5.51115 	3.40755 	8.14395 	7.49770 	5.61755 	3.43210 	7.14980 	6.59830 	5.48645 	3.65115 	5.29230 	4.94095 	3.99935 	3.06955 	0.83855 
0.35875 	2.20365 	4.70890 	4.14320 	2.93815 	1.70300 	6.64085 	5.69405 	4.14045 	2.97420 	8.13000 	6.35540 	5.38540 	3.43935 	7.95645 	7.34655 	5.56685 	3.48980 	7.00445 	6.47360 	5.43795 	3.66720 	5.19855 	4.86815 	3.96315 	2.98770 	0.76550 
0.26645 	2.06675 	4.51715 	3.96895 	2.80935 	1.64880 	6.40920 	5.48950 	4.05020 	2.89200 	7.87595 	6.14890 	5.25205 	3.45860 	7.75905 	7.18475 	5.50630 	3.53280 	6.85040 	6.34015 	5.38055 	3.67570 	5.09890 	4.78825 	3.92130 	2.90230 	0.69270 
0.17630 	1.93115 	4.31985 	3.78945 	2.67545 	1.58605 	6.17105 	5.27785 	3.94650 	2.79900 	7.61280 	5.93540 	5.11365 	3.46535 	7.55380 	7.01365 	5.43670 	3.56170 	6.68960 	6.19970 	5.31515 	3.67775 	4.99485 	4.70270 	3.87475 	2.81490 	0.62145 
0.08895 	1.79750 	4.11835 	3.60625 	2.53900 	1.51570 	5.92780 	5.06060 	3.83005 	2.69895 	7.34255 	5.71645 	4.97250 	3.45955 	7.34240 	6.83465 	5.35865 	3.57730 	6.52375 	6.05380 	5.24265 	3.67410 	4.88760 	4.61305 	3.82415 	2.72675 	0.55270 
0.00455 	1.66605 	3.91345 	3.42060 	2.40230 	1.43870 	5.68045 	4.83900 	3.70165 	2.59510 	7.06690 	5.49330 	4.83015 	3.44140 	7.12635 	6.64890 	5.27210 	3.58025 	6.35435 	5.90360 	5.16340 	3.66500 	4.77780 	4.52005 	3.76980 	2.63855 	0.48665 
-0.07745 	1.53630 	3.70570 	3.23335 	2.26725 	1.35645 	5.42985 	4.61375 	3.56250 	2.49010 	6.78720 	5.26690 	4.68770 	3.41085 	6.90690 	6.45745 	5.17715 	3.57135 	6.18245 	5.75020 	5.07775 	3.65050 	4.66595 	4.42450 	3.71190 	2.55070 	0.42300 
-0.15780 	1.40745 	3.49550 	3.04510 	2.13510 	1.27035 	5.17625 	4.38535 	3.41395 	2.38645 	6.50485 	5.03800 	4.54565 	3.36785 	6.68510 	6.26130 	5.07355 	3.55145 	6.00900 	5.59425 	4.98595 	3.63045 	4.55230 	4.32690 	3.65050 	2.46340 	0.36160 
-0.23745 	1.27845 	3.28310 	2.85610 	2.00650 	1.18185 	4.92015 	4.15420 	3.25730 	2.28615 	6.22085 	4.80740 	4.40405 	3.31220 	6.46195 	6.06130 	4.96155 	3.52095 	5.83470 	5.43630 	4.88820 	3.60475 	4.43700 	4.22780 	3.58585 	2.37685 	0.30200 
-0.31730 	1.14800 	3.06850 	2.66635 	1.88100 	1.09230 	4.66165 	3.92055 	3.09390 	2.19100 	5.93610 	4.57570 	4.26250 	3.24345 	6.23810 	5.85850 	4.84145 	3.48025 	5.66010 	5.27690 	4.78495 	3.57325 	4.32040 	4.12745 	3.51835 	2.29125 	0.24395 
-0.39815 	1.01480 	2.85145 	2.47550 	1.75720 	1.00275 	4.40080 	3.68445 	2.92480 	2.10180 	5.65125 	4.34340 	4.12025 	3.16100 	6.01395 	5.65370 	4.71395 	3.42910 	5.48560 	5.11640 	4.67640 	3.53595 	4.20255 	4.02635 	3.44835 	2.20665 	0.18720 
-0.48090 	0.87760 	2.63160 	2.28315 	1.63310 	0.91360 	4.13730 	3.44595 	2.75040 	2.01820 	5.36645 	4.11110 	3.97605 	3.06435 	5.78980 	5.44770 	4.57985 	3.36690 	5.31120 	4.95475 	4.56300 	3.49285 	4.08355 	3.92450 	3.37610 	2.12300 	0.13145 
-0.56600 	0.73530 	2.40860 	2.08840 	1.50605 	0.82490 	3.87090 	3.20495 	2.57060 	1.93820 	5.08185 	3.87915 	3.82835 	2.95300 	5.56535 	5.24105 	4.43975 	3.29285 	5.13685 	4.79205 	4.44510 	3.44365 	3.96340 	3.82195 	3.30190 	2.04010 	0.07645 
-0.65400 	0.58745 	2.18210 	1.89080 	1.37355 	0.73605 	3.60145 	2.96160 	2.38480 	1.85880 	4.79725 	3.64795 	3.67580 	2.82680 	5.34045 	5.03410 	4.29455 	3.20605 	4.96235 	4.62815 	4.32310 	3.38835 	3.84200 	3.71855 	3.22600 	1.95785 	0.02205 
-0.74465 	0.43440 	1.95260 	1.69005 	1.23385 	0.64635 	3.32925 	2.71650 	2.19275 	1.77605 	4.51290 	3.41825 	3.51715 	2.68615 	5.11490 	4.82745 	4.14515 	3.10650 	4.78765 	4.46335 	4.19775 	3.32705 	3.71980 	3.61450 	3.14885 	1.87610 	-0.03150 
-0.83725 	0.27755 	1.72100 	1.48665 	1.08635 	0.55460 	3.05525 	2.47075 	1.99480 	1.68660 	4.22925 	3.19100 	3.35220 	2.53240 	4.88910 	4.62190 	3.99280 	2.99510 	4.61310 	4.29815 	4.07015 	3.26065 	3.59740 	3.51005 	3.07135 	1.79510 	-0.08365 
-0.93040 	0.11920 	1.48920 	1.28205 	0.93195 	0.46020 	2.78120 	2.22635 	1.79235 	1.58780 	3.94745 	2.96765 	3.18155 	2.36765 	4.66370 	4.41845 	3.83930 	2.87415 	4.43935 	4.13345 	3.94190 	3.19035 	3.47595 	3.40605 	2.99460 	1.71575 	-0.13340 
-1.02245 	-0.03745 	1.25965 	1.07815 	0.77275 	0.36255 	2.50940 	1.98565 	1.58770 	1.47850 	3.66910 	2.74965 	3.00685 	2.19495 	4.43975 	4.21845 	3.68655 	2.74715 	4.26755 	3.97050 	3.81480 	3.11770 	3.35700 	3.30360 	2.91980 	1.63895 	-0.17915 
-1.11145 	-0.18925 	1.03505 	0.87715 	0.61130 	0.26150 	2.24200 	1.75100 	1.38340 	1.35905 	3.39575 	2.53860 	2.83010 	2.01760 	4.21835 	4.02295 	3.53620 	2.61775 	4.09860 	3.81035 	3.69035 	3.04425 	3.24180 	3.20355 	2.84805 	1.56590 	-0.21965 
-1.19565 	-0.33305 	0.81765 	0.68105 	0.45035 	0.15740 	1.98135 	1.52420 	1.18195 	1.23085 	3.12880 	2.33500 	2.65340 	1.83860 	4.00050 	3.83255 	3.38935 	2.48960 	3.93345 	3.65390 	3.56945 	2.97115 	3.13140 	3.10640 	2.77980 	1.49750 	-0.25370 
-1.27375 	-0.46650 	0.60940 	0.49145 	0.29210 	0.05100 	1.72875 	1.30655 	0.98540 	1.09665 	2.86910 	2.13910 	2.47840 	1.66070 	3.78680 	3.64745 	3.24660 	2.36575 	3.77250 	3.50150 	3.45250 	2.89925 	3.02630 	3.01255 	2.71525 	1.43425 	-0.28065 
-1.34485 	-0.58785 	0.41150 	0.30920 	0.13825 	-0.05645 	1.48525 	1.09825 	0.79505 	0.96000 	2.61730 	1.95005 	2.30635 	1.48605 	3.57750 	3.46730 	3.10790 	2.24795 	3.61590 	3.35315 	3.33905 	2.82875 	2.92645 	2.92165 	2.65400 	1.37635 	-0.30010 
-1.40825 	-0.69630 	0.22470 	0.13505 	-0.01025 	-0.16375 	1.25130 	0.89915 	0.61225 	0.82460 	2.37340 	1.76685 	2.13825 	1.31635 	3.37280 	3.29145 	2.97275 	2.13655 	3.46365 	3.20855 	3.22850 	2.75965 	2.83150 	2.83350 	2.59565 	1.32365 	-0.31230 
-1.46380 	-0.79160 	0.04935 	-0.03090 	-0.15280 	-0.26945 	1.02715 	0.70910 	0.43775 	0.69380 	2.13745 	1.58875 	1.97515 	1.15315 	3.17305 	3.11960 	2.84100 	2.03070 	3.31585 	3.06770 	3.12020 	2.69195 	2.74115 	2.74775 	2.53965 	1.27595 	-0.31735 
-1.51130 	-0.87405 	-0.11425 	-0.18830 	-0.28910 	-0.37205 	0.81315 	0.52795 	0.27260 	0.57010 	1.90995 	1.41545 	1.81835 	0.99820 	2.97885 	2.95190 	2.71265 	1.92875 	3.17270 	2.93090 	3.01390 	2.62550 	2.65520 	2.66435 	2.48575 	1.23345 	-0.31535 
-1.55075 	-0.94435 	-0.26600 	-0.33680 	-0.41895 	-0.47025 	0.60955 	0.35610 	0.11760 	0.45505 	1.69150 	1.24730 	1.66950 	0.85315 	2.79115 	2.78895 	2.58830 	1.82835 	3.03495 	2.79875 	2.90975 	2.56010 	2.57380 	2.58380 	2.43380 	1.19620 	-0.30645 
-1.58250 	-1.00370 	-0.40580 	-0.47620 	-0.54225 	-0.56280 	0.41670 	0.19380 	-0.02660 	0.34920 	1.48280 	1.08490 	1.53000 	0.71960 	2.61115 	2.63180 	2.46860 	1.72685 	2.90360 	2.67215 	2.80825 	2.49560 	2.49715 	2.50650 	2.38405 	1.16470 	-0.29060 
-1.60725 	-1.05365 	-0.53410 	-0.60635 	-0.65890 	-0.64885 	0.23465 	0.04135 	-0.15985 	0.25215 	1.28450 	0.92880 	1.40085 	0.59875 	2.43985 	2.48150 	2.35420 	1.62170 	2.77940 	2.55200 	2.71000 	2.43160 	2.42560 	2.43290 	2.33650 	1.13915 	-0.26800 
-1.62615 	-1.09640 	-0.65170 	-0.72765 	-0.76920 	-0.72815 	0.06295 	-0.10170 	-0.28240 	0.16275 	1.09695 	0.77925 	1.28205 	0.49120 	2.27790 	2.33870 	2.24520 	1.51115 	2.66300 	2.43890 	2.61520 	2.36755 	2.35915 	2.36330 	2.29090 	1.11950 	-0.23925 
-1.64080 	-1.13450 	-0.75980 	-0.84075 	-0.87380 	-0.80105 	-0.09925 	-0.23610 	-0.39525 	0.07945 	0.91990 	0.63585 	1.17280 	0.39680 	2.12560 	2.20370 	2.14150 	1.39425 	2.55455 	2.33310 	2.52395 	2.30275 	2.29760 	2.29755 	2.24700 	1.10545 	-0.20510 
-1.65300 	-1.17035 	-0.86010 	-0.94665 	-0.97320 	-0.86820 	-0.25310 	-0.36305 	-0.49960 	0.00070 	0.75290 	0.49775 	1.07130 	0.31495 	1.98270 	2.07625 	2.04235 	1.27145 	2.45385 	2.23440 	2.43590 	2.23650 	2.24035 	2.23550 	2.20425 	1.09620 	-0.16695 
-1.66440 	-1.20620 	-0.95410 	-1.04650 	-1.06805 	-0.93040 	-0.39980 	-0.48400 	-0.59695 	-0.07450 	0.59510 	0.36400 	0.97565 	0.24475 	1.84860 	1.95595 	1.94680 	1.14435 	2.36025 	2.14215 	2.35045 	2.16815 	2.18675 	2.17650 	2.16200 	1.09070 	-0.12600 
-1.67645 	-1.24400 	-1.04375 	-1.14150 	-1.15885 	-0.98850 	-0.54080 	-0.60040 	-0.68895 	-0.14675 	0.44535 	0.23350 	0.88340 	0.18510 	1.72275 	1.84185 	1.85380 	1.01580 	2.27305 	2.05565 	2.26695 	2.09735 	2.13590 	2.12000 	2.11980 	1.08780 	-0.08370 
-1.69020 	-1.28500 	-1.13055 	-1.23290 	-1.24605 	-1.04290 	-0.67750 	-0.71385 	-0.77730 	-0.21620 	0.30260 	0.10505 	0.79240 	0.13475 	1.60395 	1.73310 	1.76220 	0.88905 	2.19115 	1.97380 	2.18470 	2.02365 	2.08700 	2.06535 	2.07710 	1.08625 	-0.04125 
-1.70665 	-1.33010 	-1.21640 	-1.32205 	-1.33035 	-1.09425 	-0.81130 	-0.82600 	-0.86430 	-0.28305 	0.16535 	-0.02245 	0.70065 	0.09255 	1.49125 	1.62855 	1.67100 	0.76770 	2.11340 	1.89555 	2.10305 	1.94685 	2.03930 	2.01185 	2.03340 	1.08485 	0.00025 
-1.72630 	-1.37980 	-1.30275 	-1.41045 	-1.41255 	-1.14285 	-0.94375 	-0.93840 	-0.95215 	-0.34765 	0.03215 	-0.15025 	0.60650 	0.05690 	1.38330 	1.52710 	1.57935 	0.65485 	2.03835 	1.81965 	2.02125 	1.86675 	1.99200 	1.95885 	1.98825 	1.08240 	0.03990 
-1.74920 	-1.43385 	-1.39110 	-1.49915 	-1.49350 	-1.18905 	-1.07610 	-1.05235 	-1.04280 	-0.41050 	-0.09850 	-0.27910 	0.50875 	0.02600 	1.27880 	1.42765 	1.48665 	0.55285 	1.96490 	1.74495 	1.93875 	1.78325 	1.94460 	1.90555 	1.94100 	1.07775 	0.07670 
-1.77515 	-1.49160 	-1.48225 	-1.58900 	-1.57380 	-1.23295 	-1.20920 	-1.16850 	-1.13730 	-0.47225 	-0.22760 	-0.40945 	0.40685 	-0.00160 	1.17660 	1.32930 	1.39250 	0.46300 	1.89165 	1.67065 	1.85510 	1.69660 	1.89665 	1.85165 	1.89135 	1.06990 	0.10965 
-1.80310 	-1.55170 	-1.57655 	-1.68000 	-1.65340 	-1.27425 	-1.34335 	-1.28670 	-1.23560 	-0.53330 	-0.35585 	-0.54095 	0.30080 	-0.02730 	1.07585 	1.23150 	1.29670 	0.38535 	1.81800 	1.59605 	1.76995 	1.60720 	1.84810 	1.79675 	1.83900 	1.05840 	0.13815 
-1.83175 	-1.61245 	-1.67370 	-1.77145 	-1.73175 	-1.31215 	-1.47820 	-1.40595 	-1.33615 	-0.59395 	-0.48340 	-0.67275 	0.19135 	-0.05180 	0.97620 	1.13375 	1.19950 	0.31900 	1.74340 	1.52085 	1.68335 	1.51565 	1.79920 	1.74090 	1.78420 	1.04310 	0.16180 
-1.85950 	-1.67180 	-1.77275 	-1.86215 	-1.80765 	-1.34600 	-1.61295 	-1.52455 	-1.43635 	-0.65430 	-0.60995 	-0.80375 	0.07980 	-0.07530 	0.87730 	1.03600 	1.10105 	0.26250 	1.66805 	1.44525 	1.59540 	1.42295 	1.75045 	1.68435 	1.72750 	1.02430 	0.18055 
-1.88475 	-1.72785 	-1.87255 	-1.95035 	-1.87965 	-1.37495 	-1.74635 	-1.64045 	-1.53295 	-0.71430 	-0.73480 	-0.93235 	-0.03230 	-0.09745 	0.77945 	0.93840 	1.00185 	0.21410 	1.59220 	1.36955 	1.50670 	1.33010 	1.70260 	1.62770 	1.66955 	1.00280 	0.19475 
-1.90640 	-1.77900 	-1.97190 	-2.03440 	-1.94595 	-1.39855 	-1.87715 	-1.75145 	-1.62280 	-0.77400 	-0.85705 	-1.05715 	-0.14295 	-0.11775 	0.68325 	0.84140 	0.90270 	0.17210 	1.51645 	1.29445 	1.41795 	1.23860 	1.65655 	1.57150 	1.61140 	0.97960 	0.20515 
-1.92355 	-1.82415 	-2.06940 	-2.11270 	-2.00495 	-1.41660 	-2.00380 	-1.85565 	-1.70305 	-0.83340 	-0.97585 	-1.17665 	-0.25040 	-0.13585 	0.58920 	0.74570 	0.80445 	0.13510 	1.44185 	1.22080 	1.33005 	1.14960 	1.61305 	1.51660 	1.55415 	0.95610 	0.21275 
-1.93605 	-1.86290 	-2.16405 	-2.18385 	-2.05555 	-1.42960 	-2.12530 	-1.95165 	-1.77160 	-0.89260 	-1.09040 	-1.28975 	-0.35320 	-0.15185 	0.49835 	0.65210 	0.70790 	0.10155 	1.36915 	1.14950 	1.24405 	1.06430 	1.57275 	1.46380 	1.49875 	0.93365 	0.21850 
-1.94385 	-1.89560 	-2.25510 	-2.24720 	-2.09695 	-1.43815 	-2.24075 	-2.03890 	-1.82745 	-0.95140 	-1.20000 	-1.39565 	-0.45030 	-0.16595 	0.41130 	0.56165 	0.61390 	0.07005 	1.29930 	1.08140 	1.16085 	0.98365 	1.53630 	1.41375 	1.44590 	0.91355 	0.22350 
-1.94750 	-1.92300 	-2.34235 	-2.30260 	-2.12930 	-1.44325 	-2.34975 	-2.11780 	-1.87025 	-1.00945 	-1.30440 	-1.49425 	-0.54130 	-0.17885 	0.32870 	0.47490 	0.52300 	0.03905 	1.23290 	1.01705 	1.08110 	0.90810 	1.50375 	1.36690 	1.39605 	0.89680 	0.22865 
-1.94785 	-1.94680 	-2.42610 	-2.35105 	-2.15320 	-1.44600 	-2.45280 	-2.18960 	-1.90080 	-1.06605 	-1.40400 	-1.58605 	-0.62625 	-0.19180 	0.25050 	0.39220 	0.43585 	0.00700 	1.17020 	0.95670 	1.00530 	0.83775 	1.47480 	1.32325 	1.34925 	0.88405 	0.23450 
-1.94605 	-1.96910 	-2.50745 	-2.39400 	-2.17035 	-1.44725 	-2.55080 	-2.25650 	-1.92080 	-1.12035 	-1.49960 	-1.67240 	-0.70590 	-0.20620 	0.17625 	0.31340 	0.35230 	-0.02770 	1.11085 	0.89985 	0.93335 	0.77220 	1.44890 	1.28255 	1.30500 	0.87540 	0.24160 
-1.94350 	-1.99210 	-2.58765 	-2.43370 	-2.18305 	-1.44795 	-2.64535 	-2.32130 	-1.93280 	-1.17135 	-1.59235 	-1.75500 	-0.78110 	-0.22365 	0.10515 	0.23795 	0.27220 	-0.06655 	1.05430 	0.84580 	0.86485 	0.71065 	1.42510 	1.24440 	1.26265 	0.87075 	0.25040 
-1.94170 	-2.01820 	-2.66830 	-2.47255 	-2.19390 	-1.44885 	-2.73810 	-2.38635 	-1.93995 	-1.21830 	-1.68350 	-1.83540 	-0.85260 	-0.24600 	0.03615 	0.16510 	0.19500 	-0.11055 	0.99955 	0.79365 	0.79925 	0.65220 	1.40250 	1.20805 	1.22130 	0.86980 	0.26120 
-1.94210 	-2.04925 	-2.75085 	-2.51285 	-2.20535 	-1.45085 	-2.83045 	-2.45345 	-1.94580 	-1.26080 	-1.77420 	-1.91480 	-0.92070 	-0.27500 	-0.03170 	0.09425 	0.12000 	-0.16045 	0.94590 	0.74245 	0.73580 	0.59575 	1.38030 	1.17305 	1.18005 	0.87235 	0.27440 
-1.94580 	-2.08640 	-2.83600 	-2.55600 	-2.21940 	-1.45465 	-2.92320 	-2.52320 	-1.95335 	-1.29875 	-1.86460 	-1.99320 	-0.98520 	-0.31225 	-0.09890 	0.02520 	0.04705 	-0.21605 	0.89275 	0.69150 	0.67410 	0.54065 	1.35810 	1.13920 	1.13840 	0.87800 	0.29030 
-1.95320 	-2.12960 	-2.92360 	-2.60255 	-2.23680 	-1.46050 	-3.01630 	-2.59480 	-1.96485 	-1.33235 	-1.95430 	-2.06970 	-1.04525 	-0.35915 	-0.16520 	-0.04170 	-0.02390 	-0.27655 	0.84025 	0.64075 	0.61420 	0.48640 	1.33625 	1.10685 	1.09630 	0.88695 	0.30950 
-1.96415 	-2.17790 	-3.01260 	-2.65165 	-2.25720 	-1.46830 	-3.10850 	-2.66600 	-1.98115 	-1.36195 	-2.04190 	-2.14215 	-1.09915 	-0.41660 	-0.22985 	-0.10540 	-0.09200 	-0.34040 	0.78910 	0.59090 	0.55665 	0.43335 	1.31570 	1.07685 	1.05450 	0.89960 	0.33255 
-1.97765 	-2.22910 	-3.10105 	-2.70155 	-2.27885 	-1.47745 	-3.19800 	-2.73380 	-2.00140 	-1.38760 	-2.12525 	-2.20775 	-1.14535 	-0.48485 	-0.29115 	-0.16425 	-0.15625 	-0.40550 	0.74075 	0.54315 	0.50250 	0.38225 	1.29795 	1.05065 	1.01420 	0.91650 	0.36020 
-1.99235 	-2.28055 	-3.18645 	-2.74980 	-2.29935 	-1.48685 	-3.28225 	-2.79495 	-2.02380 	-1.40940 	-2.20205 	-2.26365 	-1.18210 	-0.56350 	-0.34740 	-0.21625 	-0.21500 	-0.46965 	0.69685 	0.49900 	0.45325 	0.33445 	1.28495 	1.02970 	0.97710 	0.93860 	0.39300 
-2.00675 	-2.32920 	-3.26620 	-2.79380 	-2.31585 	-1.49520 	-3.35920 	-2.84650 	-2.04570 	-1.42725 	-2.27000 	-2.30745 	-1.20820 	-0.65165 	-0.39685 	-0.25965 	-0.26700 	-0.53080 	0.65880 	0.46010 	0.41020 	0.29135 	1.27835 	1.01555 	0.94490 	0.96625 	0.43120 
-2.01940 	-2.37235 	-3.33835 	-2.83140 	-2.32605 	-1.50150 	-3.42705 	-2.88655 	-2.06465 	-1.44135 	-2.32770 	-2.33780 	-1.22335 	-0.74795 	-0.43825 	-0.29310 	-0.31110 	-0.58735 	0.62785 	0.42750 	0.37425 	0.25420 	1.27950 	1.00900 	0.91895 	0.99955 	0.47460 
-2.02940 	-2.40810 	-3.40135 	-2.86145 	-2.32825 	-1.50515 	-3.48485 	-2.91465 	-2.07860 	-1.45230 	-2.37445 	-2.35455 	-1.22810 	-0.85075 	-0.47105 	-0.31605 	-0.34695 	-0.63805 	0.60425 	0.40170 	0.34580 	0.22380 	1.28875 	1.01045 	0.90015 	1.03795 	0.52210 
-2.03645 	-2.43560 	-3.45500 	-2.88360 	-2.32205 	-1.50635 	-3.53280 	-2.93175 	-2.08650 	-1.46110 	-2.41075 	-2.35880 	-1.22390 	-0.95790 	-0.49565 	-0.32905 	-0.37490 	-0.68240 	0.58770 	0.38245 	0.32455 	0.20060 	1.30590 	1.01945 	0.88865 	1.08015 	0.57195 
-2.04095 	-2.45515 	-3.50005 	-2.89895 	-2.30855 	-1.50600 	-3.57210 	-2.94005 	-2.08850 	-1.46900 	-2.43800 	-2.35285 	-1.21295 	-1.06670 	-0.51325 	-0.33340 	-0.39605 	-0.72020 	0.57690 	0.36865 	0.30955 	0.18440 	1.32970 	1.03470 	0.88385 	1.12415 	0.62165 
-2.04390 	-2.46790 	-3.53805 	-2.90905 	-2.28970 	-1.50570 	-3.60470 	-2.94260 	-2.08575 	-1.47745 	-2.45840 	-2.33965 	-1.19770 	-1.17405 	-0.52570 	-0.33125 	-0.41220 	-0.75200 	0.57010 	0.35875 	0.29930 	0.17425 	1.35815 	1.05450 	0.88465 	1.16755 	0.66835 
-2.04660 	-2.47595 	-3.57105 	-2.91615 	-2.26820 	-1.50730 	-3.63275 	-2.94290 	-2.07985 	-1.48790 	-2.47450 	-2.32270 	-1.18080 	-1.27630 	-0.53515 	-0.32525 	-0.42540 	-0.77860 	0.56530 	0.35090 	0.29215 	0.16910 	1.38910 	1.07695 	0.88955 	1.20800 	0.70925 
-2.05035 	-2.48145 	-3.60105 	-2.92240 	-2.24690 	-1.51260 	-3.65860 	-2.94395 	-2.07255 	-1.50130 	-2.48870 	-2.30510 	-1.16440 	-1.36985 	-0.54360 	-0.31770 	-0.43760 	-0.80100 	0.56070 	0.34340 	0.28665 	0.16755 	1.42035 	1.10015 	0.89715 	1.24330 	0.74185 
-2.05620 	-2.48660 	-3.63000 	-2.92945 	-2.22800 	-1.52300 	-3.68395 	-2.94825 	-2.06525 	-1.51800 	-2.50305 	-2.28940 	-1.15005 	-1.45120 	-0.55275 	-0.31080 	-0.45015 	-0.82010 	0.55465 	0.33490 	0.28185 	0.16880 	1.44995 	1.12295 	0.90625 	1.27210 	0.76485 
-2.06495 	-2.49335 	-3.65930 	-2.93860 	-2.21320 	-1.53920 	-3.70995 	-2.95715 	-2.05875 	-1.53785 	-2.51885 	-2.27755 	-1.13880 	-1.51800 	-0.56350 	-0.30590 	-0.46365 	-0.83660 	0.54650 	0.32485 	0.27740 	0.17235 	1.47675 	1.14470 	0.91655 	1.29380 	0.77810 
-2.07695 	-2.50340 	-3.68970 	-2.95050 	-2.20380 	-1.56120 	-3.73720 	-2.97125 	-2.05355 	-1.55995 	-2.53680 	-2.27045 	-1.13095 	-1.56885 	-0.57620 	-0.30340 	-0.47765 	-0.85050 	0.53595 	0.31315 	0.27365 	0.17830 	1.50025 	1.16565 	0.92820 	1.30895 	0.78260 
-2.09230 	-2.51780 	-3.72165 	-2.96535 	-2.20020 	-1.58890 	-3.76550 	-2.99015 	-2.04965 	-1.58290 	-2.55700 	-2.26820 	-1.12655 	-1.60365 	-0.59065 	-0.30320 	-0.49105 	-0.86175 	0.52345 	0.30045 	0.27165 	0.18715 	1.52060 	1.18655 	0.94210 	1.31870 	0.78025 
-2.11080 	-2.53730 	-3.75510 	-2.98320 	-2.20285 	-1.62155 	-3.79450 	-3.01325 	-2.04730 	-1.60510 	-2.57880 	-2.27040 	-1.12560 	-1.62375 	-0.60605 	-0.30460 	-0.50245 	-0.87005 	0.50965 	0.28750 	0.27240 	0.19960 	1.53825 	1.20860 	0.95920 	1.32455 	0.77345 
-2.13210 	-2.56225 	-3.78970 	-3.00365 	-2.21130 	-1.65850 	-3.82340 	-3.03925 	-2.04655 	-1.62510 	-2.60150 	-2.27595 	-1.12785 	-1.63140 	-0.62160 	-0.30655 	-0.51035 	-0.87520 	0.49525 	0.27530 	0.27680 	0.21610 	1.55385 	1.23285 	0.98045 	1.32810 	0.76440 
-2.15575 	-2.59245 	-3.82470 	-3.02620 	-2.22525 	-1.69895 	-3.85135 	-3.06690 	-2.04760 	-1.64190 	-2.62405 	-2.28340 	-1.13280 	-1.62940 	-0.63640 	-0.30800 	-0.51345 	-0.87735 	0.48105 	0.26465 	0.28545 	0.23670 	1.56785 	1.25995 	1.00640 	1.33050 	0.75495 
-2.18120 	-2.62725 	-3.85935 	-3.04990 	-2.24350 	-1.74170 	-3.87740 	-3.09470 	-2.05050 	-1.65500 	-2.64500 	-2.29125 	-1.14000 	-1.62080 	-0.64965 	-0.30800 	-0.51095 	-0.87680 	0.46775 	0.25615 	0.29855 	0.26105 	1.58095 	1.29050 	1.03755 	1.33280 	0.74645 
-2.20760 	-2.66550 	-3.89235 	-3.07365 	-2.26470 	-1.78550 	-3.90030 	-3.12095 	-2.05520 	-1.66435 	-2.66325 	-2.29755 	-1.14845 	-1.60830 	-0.66025 	-0.30550 	-0.50215 	-0.87385 	0.45595 	0.25040 	0.31610 	0.28895 	1.59345 	1.32460 	1.07385 	1.33555 	0.73955 
-2.23385 	-2.70525 	-3.92225 	-3.09600 	-2.28700 	-1.82835 	-3.91880 	-3.14390 	-2.06130 	-1.66970 	-2.67700 	-2.30055 	-1.15670 	-1.59365 	-0.66755 	-0.29935 	-0.48685 	-0.86860 	0.44635 	0.24780 	0.33830 	0.31990 	1.60615 	1.36235 	1.11555 	1.33925 	0.73495 
-2.25855 	-2.74425 	-3.94730 	-3.11535 	-2.30825 	-1.86800 	-3.93135 	-3.16175 	-2.06825 	-1.67035 	-2.68505 	-2.29835 	-1.16280 	-1.57730 	-0.67060 	-0.28875 	-0.46480 	-0.86060 	0.43970 	0.24915 	0.36525 	0.35380 	1.61995 	1.40400 	1.16280 	1.34445 	0.73280 
-2.28015 	-2.77985 	-3.96575 	-3.13005 	-2.32645 	-1.90200 	-3.93680 	-3.17310 	-2.07530 	-1.66520 	-2.68600 	-2.28980 	-1.16465 	-1.55870 	-0.66855 	-0.27300 	-0.43625 	-0.84960 	0.43670 	0.25480 	0.39715 	0.39085 	1.63575 	1.44965 	1.21565 	1.35155 	0.73320 
-2.29725 	-2.80955 	-3.97630 	-3.13890 	-2.33960 	-1.92795 	-3.93410 	-3.17705 	-2.08175 	-1.65250 	-2.67915 	-2.27435 	-1.16020 	-1.53620 	-0.66100 	-0.25190 	-0.40150 	-0.83500 	0.43780 	0.26505 	0.43410 	0.43130 	1.65430 	1.49930 	1.27415 	1.36075 	0.73585 
-2.30855 	-2.83095 	-3.97785 	-3.14095 	-2.34655 	-1.94370 	-3.92280 	-3.17315 	-2.08720 	-1.63080 	-2.66445 	-2.25230 	-1.14795 	-1.50785 	-0.64790 	-0.22575 	-0.36115 	-0.81695 	0.44315 	0.27995 	0.47575 	0.47535 	1.67610 	1.55250 	1.33765 	1.37180 	0.73995 
-2.31325 	-2.84265 	-3.97005 	-3.13600 	-2.34650 	-1.94790 	-3.90295 	-3.16170 	-2.09140 	-1.59900 	-2.64245 	-2.22455 	-1.12690 	-1.47200 	-0.62970 	-0.19540 	-0.31610 	-0.79610 	0.45245 	0.29900 	0.52150 	0.52310 	1.70130 	1.60870 	1.40540 	1.38430 	0.74465 
-2.31120 	-2.84370 	-3.95320 	-3.12410 	-2.33955 	-1.93995 	-3.87525 	-3.14325 	-2.09420 	-1.55705 	-2.61420 	-2.19260 	-1.09650 	-1.42735 	-0.60730 	-0.16235 	-0.26730 	-0.77335 	0.46495 	0.32155 	0.57050 	0.57410 	1.72950 	1.66685 	1.47590 	1.39745 	0.74885 
-2.30275 	-2.83420 	-3.92810 	-3.10585 	-2.32610 	-1.91975 	-3.84085 	-3.11880 	-2.09560 	-1.50600 	-2.58120 	-2.15815 	-1.05720 	-1.37350 	-0.58190 	-0.12810 	-0.21580 	-0.74990 	0.47970 	0.34665 	0.62170 	0.62770 	1.75995 	1.72580 	1.54760 	1.41030 	0.75145 
-2.28880 	-2.81515 	-3.89620 	-3.08215 	-2.30740 	-1.88810 	-3.80125 	-3.08950 	-2.09580 	-1.44765 	-2.54530 	-2.12285 	-1.01020 	-1.31055 	-0.55500 	-0.09430 	-0.16260 	-0.72705 	0.49565 	0.37320 	0.67380 	0.68285 	1.79150 	1.78405 	1.61840 	1.42175 	0.75125 
-2.27090 	-2.78840 	-3.85955 	-3.05445 	-2.28525 	-1.84625 	-3.75835 	-3.05685 	-2.09535 	-1.38485 	-2.50825 	-2.08840 	-0.95760 	-1.23965 	-0.52820 	-0.06260 	-0.10890 	-0.70580 	0.51140 	0.39975 	0.72545 	0.73835 	1.82265 	1.84000 	1.68625 	1.43070 	0.74710 
-2.25100 	-2.75650 	-3.82040 	-3.02450 	-2.26150 	-1.79620 	-3.71425 	-3.02235 	-2.09475 	-1.32065 	-2.47205 	-2.05590 	-0.90235 	-1.16245 	-0.50305 	-0.03430 	-0.05575 	-0.68700 	0.52560 	0.42515 	0.77525 	0.79265 	1.85170 	1.89200 	1.74905 	1.43575 	0.73790 
-2.23105 	-2.72250 	-3.78115 	-2.99385 	-2.23800 	-1.74050 	-3.67075 	-2.98735 	-2.09445 	-1.25840 	-2.43830 	-2.02645 	-0.84805 	-1.08105 	-0.48095 	-0.01030 	-0.00415 	-0.67085 	0.53720 	0.44805 	0.82195 	0.84435 	1.87685 	1.93845 	1.80490 	1.43585 	0.72255 
-2.21285 	-2.68935 	-3.74385 	-2.96380 	-2.21570 	-1.68220 	-3.62935 	-2.95270 	-2.09445 	-1.20085 	-2.40810 	-2.00015 	-0.79810 	-0.99745 	-0.46270 	0.00910 	0.04500 	-0.65680 	0.54540 	0.46775 	0.86465 	0.89245 	1.89675 	1.97815 	1.85260 	1.43030 	0.70055 
-2.19750 	-2.65950 	-3.70995 	-2.93510 	-2.19485 	-1.62400 	-3.59085 	-2.91855 	-2.09430 	-1.14990 	-2.38195 	-1.97660 	-0.75555 	-0.91255 	-0.44860 	0.02410 	0.09135 	-0.64320 	0.55020 	0.48395 	0.90310 	0.93615 	1.91050 	2.01055 	1.89155 	1.41900 	0.67210 
-2.18565 	-2.63475 	-3.67995 	-2.90755 	-2.17440 	-1.56820 	-3.55525 	-2.88420 	-2.09275 	-1.10660 	-2.35930 	-1.95460 	-0.72225 	-0.82655 	-0.43805 	0.03575 	0.13495 	-0.62755 	0.55175 	0.49695 	0.93745 	0.97540 	1.91785 	2.03565 	1.92200 	1.40240 	0.63780 
-2.17705 	-2.61605 	-3.65380 	-2.88060 	-2.15280 	-1.51605 	-3.52190 	-2.84840 	-2.08855 	-1.07085 	-2.33915 	-1.93265 	-0.69895 	-0.73880 	-0.43010 	0.04530 	0.17610 	-0.60675 	0.55110 	0.50750 	0.96840 	1.01035 	1.91900 	2.05400 	1.94485 	1.38135 	0.59905 
-2.17085 	-2.60350 	-3.63065 	-2.85310 	-2.12835 	-1.46775 	-3.48960 	-2.80980 	-2.08040 	-1.04190 	-2.32000 	-1.90880 	-0.68470 	-0.64800 	-0.42315 	0.05450 	0.21575 	-0.57775 	0.54940 	0.51675 	0.99690 	1.04170 	1.91485 	2.06660 	1.96150 	1.35700 	0.55745 
-2.16615 	-2.59665 	-3.60930 	-2.82410 	-2.09940 	-1.42285 	-3.45720 	-2.76710 	-2.06725 	-1.01850 	-2.30015 	-1.88140 	-0.67795 	-0.55310 	-0.41575 	0.06500 	0.25485 	-0.53805 	0.54805 	0.52585 	1.02415 	1.07015 	1.90645 	2.07455 	1.97335 	1.33065 	0.51465 
-2.16200 	-2.59460 	-3.58870 	-2.79250 	-2.06510 	-1.38030 	-3.42335 	-2.71945 	-2.04845 	-0.99925 	-2.27795 	-1.84920 	-0.67635 	-0.45350 	-0.40630 	0.07825 	0.29425 	-0.48595 	0.54825 	0.53600 	1.05120 	1.09670 	1.89485 	2.07915 	1.98210 	1.30340 	0.47225 
-2.15740 	-2.59635 	-3.56770 	-2.75775 	-2.02525 	-1.33920 	-3.38735 	-2.66665 	-2.02390 	-0.98310 	-2.25230 	-1.81150 	-0.67745 	-0.34975 	-0.39365 	0.09520 	0.33470 	-0.42090 	0.55095 	0.54790 	1.07895 	1.12215 	1.88130 	2.08130 	1.98885 	1.27615 	0.43145 
-2.15200 	-2.60080 	-3.54575 	-2.71960 	-1.98055 	-1.29885 	-3.34865 	-2.60925 	-1.99365 	-0.96905 	-2.22270 	-1.76845 	-0.67925 	-0.24330 	-0.37735 	0.11620 	0.37650 	-0.34350 	0.55660 	0.56200 	1.10780 	1.14715 	1.86655 	2.08195 	1.99455 	1.24940 	0.39310 
-2.14545 	-2.60685 	-3.52250 	-2.67850 	-1.93265 	-1.25880 	-3.30755 	-2.54830 	-1.95850 	-0.95645 	-2.18905 	-1.72080 	-0.68015 	-0.13705 	-0.35720 	0.14110 	0.41930 	-0.25545 	0.56535 	0.57845 	1.13785 	1.17205 	1.85155 	2.08150 	1.99980 	1.22355 	0.35750 
-2.13775 	-2.61350 	-3.49805 	-2.63520 	-1.88375 	-1.21880 	-3.26455 	-2.48540 	-1.91930 	-0.94475 	-2.15190 	-1.66995 	-0.67905 	-0.03415 	-0.33385 	0.16925 	0.46245 	-0.15890 	0.57680 	0.59690 	1.16895 	1.19740 	1.83685 	2.08040 	2.00470 	1.19870 	0.32475 
-2.12900 	-2.61975 	-3.47285 	-2.59090 	-1.83630 	-1.17885 	-3.22065 	-2.42250 	-1.87710 	-0.93345 	-2.11205 	-1.61765 	-0.67545 	0.06195 	-0.30785 	0.19980 	0.50525 	-0.05620 	0.59060 	0.61690 	1.20065 	1.22340 	1.82295 	2.07875 	2.00920 	1.17490 	0.29450 
-2.11930 	-2.62470 	-3.44730 	-2.54705 	-1.79270 	-1.13895 	-3.17680 	-2.36140 	-1.83305 	-0.92160 	-2.07055 	-1.56570 	-0.66945 	0.14855 	-0.28015 	0.23170 	0.54675 	0.05100 	0.60630 	0.63795 	1.23260 	1.25045 	1.81045 	2.07665 	2.01315 	1.15205 	0.26630 
-2.10880 	-2.62745 	-3.42180 	-2.50505 	-1.75490 	-1.09935 	-3.13405 	-2.30395 	-1.78810 	-0.90825 	-2.02815 	-1.51590 	-0.66130 	0.22320 	-0.25155 	0.26430 	0.58620 	0.16120 	0.62340 	0.65980 	1.26435 	1.27895 	1.79985 	2.07440 	2.01630 	1.13030 	0.23950 
-2.09760 	-2.62735 	-3.39680 	-2.46625 	-1.72435 	-1.06050 	-3.09330 	-2.25135 	-1.74310 	-0.89215 	-1.98580 	-1.46950 	-0.65165 	0.28450 	-0.22265 	0.29695 	0.62300 	0.27330 	0.64180 	0.68215 	1.29565 	1.30930 	1.79160 	2.07205 	2.01845 	1.10960 	0.21370 
-2.08585 	-2.62390 	-3.37275 	-2.43150 	-1.70165 	-1.02290 	-3.05530 	-2.20420 	-1.69905 	-0.87210 	-1.94395 	-1.42750 	-0.64090 	0.33180 	-0.19405 	0.32915 	0.65650 	0.38645 	0.66120 	0.70485 	1.32600 	1.34170 	1.78605 	2.06980 	2.01950 	1.09025 	0.18850 
-2.07375 	-2.61695 	-3.34985 	-2.40145 	-1.68710 	-0.98745 	-3.02045 	-2.16280 	-1.65680 	-0.84745 	-1.90315 	-1.39025 	-0.62945 	0.36550 	-0.16605 	0.36065 	0.68630 	0.49945 	0.68160 	0.72775 	1.35515 	1.37600 	1.78355 	2.06785 	2.01940 	1.07240 	0.16395 
-2.06155 	-2.60650 	-3.32835 	-2.37655 	-1.68040 	-0.95490 	-2.98900 	-2.12670 	-1.61720 	-0.81800 	-1.86365 	-1.35785 	-0.61725 	0.38675 	-0.13900 	0.39120 	0.71220 	0.61070 	0.70285 	0.75060 	1.38265 	1.41175 	1.78385 	2.06630 	2.01820 	1.05610 	0.14025 
-2.04980 	-2.59330 	-3.30865 	-2.35680 	-1.68110 	-0.92620 	-2.96100 	-2.09570 	-1.58105 	-0.78445 	-1.82580 	-1.33025 	-0.60415 	0.39725 	-0.11310 	0.42060 	0.73415 	0.71775 	0.72475 	0.77310 	1.40805 	1.44795 	1.78670 	2.06505 	2.01595 	1.04160 	0.11750 
-2.03925 	-2.57830 	-3.29125 	-2.34235 	-1.68850 	-0.90210 	-2.93670 	-2.06945 	-1.54900 	-0.74820 	-1.79005 	-1.30715 	-0.59000 	0.39880 	-0.08860 	0.44840 	0.75215 	0.81725 	0.74715 	0.79490 	1.43120 	1.48320 	1.79135 	2.06400 	2.01280 	1.02860 	0.09585 
-2.03085 	-2.56315 	-3.27675 	-2.33335 	-1.70190 	-0.88310 	-2.91630 	-2.04810 	-1.52155 	-0.71135 	-1.75700 	-1.28885 	-0.57480 	0.39265 	-0.06600 	0.47430 	0.76640 	0.90510 	0.76955 	0.81560 	1.45165 	1.51575 	1.79715 	2.06255 	2.00865 	1.01700 	0.07540 
-2.02590 	-2.54965 	-3.26595 	-2.32985 	-1.72060 	-0.86955 	-2.90035 	-2.03225 	-1.49945 	-0.67625 	-1.72755 	-1.27575 	-0.55855 	0.37955 	-0.04575 	0.49760 	0.77670 	0.97695 	0.79130 	0.83435 	1.46910 	1.54370 	1.80280 	2.06020 	2.00330 	1.00650 	0.05610 
-2.02525 	-2.53980 	-3.25985 	-2.33220 	-1.74385 	-0.86120 	-2.88935 	-2.02265 	-1.48285 	-0.64530 	-1.70265 	-1.26850 	-0.54165 	0.35965 	-0.02860 	0.51765 	0.78285 	1.02885 	0.81170 	0.85055 	1.48315 	1.56530 	1.80715 	2.05620 	1.99635 	0.99670 	0.03805 
-2.03005 	-2.53515 	-3.25900 	-2.34035 	-1.77055 	-0.85785 	-2.88380 	-2.02005 	-1.47185 	-0.62060 	-1.68335 	-1.26800 	-0.52420 	0.33260 	-0.01520 	0.53345 	0.78460 	1.05790 	0.82980 	0.86315 	1.49310 	1.57875 	1.80895 	2.04960 	1.98715 	0.98690 	0.02080 
-2.04075 	-2.53710 	-3.26385 	-2.35410 	-1.79950 	-0.85900 	-2.88390 	-2.02510 	-1.46615 	-0.60375 	-1.67050 	-1.27470 	-0.50650 	0.29805 	-0.00645 	0.54415 	0.78130 	1.06260 	0.84455 	0.87115 	1.49830 	1.58285 	1.80685 	2.03950 	1.97475 	0.97655 	0.00405 
-2.05750 	-2.54615 	-3.27440 	-2.37305 	-1.82945 	-0.86435 	-2.88980 	-2.03765 	-1.46500 	-0.59595 	-1.66465 	-1.28890 	-0.48880 	0.25565 	-0.00295 	0.54875 	0.77260 	1.04310 	0.85490 	0.87360 	1.49820 	1.57670 	1.79995 	2.02510 	1.95805 	0.96500 	-0.01250 
-2.08010 	-2.56240 	-3.29025 	-2.39650 	-1.85915 	-0.87395 	-2.90090 	-2.05725 	-1.46775 	-0.59805 	-1.66610 	-1.31035 	-0.47155 	0.20565 	-0.00520 	0.54665 	0.75815 	1.00065 	0.86010 	0.86980 	1.49220 	1.56000 	1.78745 	2.00580 	1.93630 	0.95185 	-0.02915 
-2.10780 	-2.58505 	-3.31050 	-2.42340 	-1.88770 	-0.88790 	-2.91660 	-2.08280 	-1.47350 	-0.61035 	-1.67455 	-1.33800 	-0.45545 	0.14855 	-0.01335 	0.53750 	0.73795 	0.93775 	0.85970 	0.85940 	1.48035 	1.53310 	1.76905 	1.98145 	1.90915 	0.93710 	-0.04590 
-2.13930 	-2.61290 	-3.33400 	-2.45255 	-1.91425 	-0.90600 	-2.93575 	-2.11275 	-1.48105 	-0.63255 	-1.68955 	-1.37060 	-0.44120 	0.08565 	-0.02740 	0.52150 	0.71280 	0.85755 	0.85355 	0.84260 	1.46285 	1.49720 	1.74520 	1.95225 	1.87670 	0.92105 	-0.06230 
-2.17325 	-2.64400 	-3.35930 	-2.48270 	-1.93820 	-0.92800 	-2.95720 	-2.14575 	-1.48935 	-0.66365 	-1.71020 	-1.40665 	-0.42970 	0.01850 	-0.04680 	0.49895 	0.68335 	0.76370 	0.84175 	0.81975 	1.44015 	1.45385 	1.71630 	1.91860 	1.83950 	0.90420 	-0.07785 
-2.20765 	-2.67625 	-3.38490 	-2.51265 	-1.95910 	-0.95320 	-2.97970 	-2.18050 	-1.49735 	-0.70160 	-1.73565 	-1.44470 	-0.42185 	-0.05090 	-0.07115 	0.47050 	0.65065 	0.65980 	0.82465 	0.79150 	1.41310 	1.40530 	1.68335 	1.88105 	1.79825 	0.88720 	-0.09210 
-2.24095 	-2.70755 	-3.40935 	-2.54155 	-1.97655 	-0.98085 	-3.00235 	-2.21605 	-1.50415 	-0.74390 	-1.76500 	-1.48375 	-0.41840 	-0.12090 	-0.10010 	0.43660 	0.61545 	0.54960 	0.80245 	0.75845 	1.38215 	1.35330 	1.64710 	1.84020 	1.75380 	0.87055 	-0.10485 
-2.27155 	-2.73575 	-3.43165 	-2.56835 	-1.99045 	-1.01020 	-3.02440 	-2.25190 	-1.50935 	-0.78760 	-1.79765 	-1.52320 	-0.41965 	-0.19030 	-0.13350 	0.39760 	0.57795 	0.43610 	0.77535 	0.72115 	1.34765 	1.29980 	1.60820 	1.79635 	1.70695 	0.85420 	-0.11595 
-2.29840 	-2.75955 	-3.45105 	-2.59265 	-2.00065 	-1.04080 	-3.04540 	-2.28780 	-1.51265 	-0.82980 	-1.83305 	-1.56280 	-0.42585 	-0.25830 	-0.17105 	0.35375 	0.53825 	0.32180 	0.74345 	0.68000 	1.30960 	1.24625 	1.56715 	1.74980 	1.65825 	0.83825 	-0.12570 
-2.32080 	-2.77785 	-3.46705 	-2.61410 	-2.00740 	-1.07260 	-3.06510 	-2.32355 	-1.51400 	-0.86820 	-1.87060 	-1.60235 	-0.43650 	-0.32495 	-0.21290 	0.30520 	0.49610 	0.20870 	0.70685 	0.63525 	1.26790 	1.19360 	1.52430 	1.70055 	1.60830 	0.82220 	-0.13430 
-2.33860 	-2.79025 	-3.47955 	-2.63250 	-2.01135 	-1.10590 	-3.08325 	-2.35875 	-1.51365 	-0.90085 	-1.90980 	-1.64170 	-0.45095 	-0.39090 	-0.25875 	0.25230 	0.45150 	0.09835 	0.66570 	0.58730 	1.22240 	1.14270 	1.47955 	1.64865 	1.55760 	0.80575 	-0.14215 
-2.35180 	-2.79675 	-3.48860 	-2.64780 	-2.01325 	-1.14100 	-3.09985 	-2.39310 	-1.51240 	-0.92655 	-1.94995 	-1.68040 	-0.46820 	-0.45675 	-0.30830 	0.19555 	0.40460 	-0.00815 	0.62030 	0.53655 	1.17285 	1.09400 	1.43320 	1.59415 	1.50685 	0.78850 	-0.14950 
-2.36065 	-2.79780 	-3.49425 	-2.66030 	-2.01410 	-1.17830 	-3.11470 	-2.42620 	-1.51160 	-0.94465 	-1.99040 	-1.71820 	-0.48745 	-0.52340 	-0.36125 	0.13540 	0.35585 	-0.10945 	0.57105 	0.48355 	1.11935 	1.04795 	1.38525 	1.53730 	1.45645 	0.77020 	-0.15660 
-2.36535 	-2.79410 	-3.49705 	-2.67030 	-2.01490 	-1.21790 	-3.12785 	-2.45800 	-1.51290 	-0.95540 	-2.03070 	-1.75475 	-0.50825 	-0.59145 	-0.41690 	0.07260 	0.30580 	-0.20455 	0.51840 	0.42890 	1.06220 	1.00475 	1.33585 	1.47825 	1.40715 	0.75060 	-0.16360 
-2.36625 	-2.78690 	-3.49735 	-2.67850 	-2.01665 	-1.25965 	-3.13945 	-2.48855 	-1.51825 	-0.96020 	-2.07050 	-1.78990 	-0.53065 	-0.66105 	-0.47480 	0.00765 	0.25470 	-0.29250 	0.46305 	0.37295 	1.00160 	0.96415 	1.28480 	1.41730 	1.35915 	0.72950 	-0.17070 
-2.36375 	-2.77730 	-3.49585 	-2.68535 	-2.01975 	-1.30330 	-3.14975 	-2.51805 	-1.52910 	-0.96095 	-2.10960 	-1.82370 	-0.55495 	-0.73175 	-0.53430 	-0.05885 	0.20280 	-0.37250 	0.40540 	0.31625 	0.93815 	0.92590 	1.23230 	1.35480 	1.31270 	0.70690 	-0.17800 
-2.35790 	-2.76660 	-3.49315 	-2.69125 	-2.02435 	-1.34815 	-3.15880 	-2.54660 	-1.54620 	-0.96020 	-2.14795 	-1.85610 	-0.58165 	-0.80275 	-0.59490 	-0.12630 	0.15015 	-0.44405 	0.34620 	0.25925 	0.87255 	0.88920 	1.17840 	1.29105 	1.26760 	0.68295 	-0.18555 
-2.34870 	-2.75565 	-3.48950 	-2.69635 	-2.03010 	-1.39345 	-3.16665 	-2.57400 	-1.56965 	-0.96070 	-2.18520 	-1.88695 	-0.61100 	-0.87270 	-0.65570 	-0.19405 	0.09670 	-0.50700 	0.28610 	0.20250 	0.80550 	0.85350 	1.12335 	1.22675 	1.22385 	0.65800 	-0.19310 
-2.33565 	-2.74505 	-3.48480 	-2.70035 	-2.03635 	-1.43820 	-3.17300 	-2.59975 	-1.59885 	-0.96485 	-2.22085 	-1.91580 	-0.64290 	-0.94015 	-0.71570 	-0.26115 	0.04280 	-0.56095 	0.22625 	0.14660 	0.73810 	0.81845 	1.06780 	1.16275 	1.18120 	0.63265 	-0.20045 
-2.31845 	-2.73500 	-3.47880 	-2.70285 	-2.04250 	-1.48100 	-3.17735 	-2.62310 	-1.63265 	-0.97400 	-2.25415 	-1.94215 	-0.67705 	-1.00375 	-0.77380 	-0.32660 	-0.01090 	-0.60585 	0.16760 	0.09250 	0.67160 	0.78390 	1.01260 	1.09995 	1.13980 	0.60760 	-0.20720 
-2.29660 	-2.72535 	-3.47090 	-2.70330 	-2.04785 	-1.52045 	-3.17900 	-2.64330 	-1.67015 	-0.98865 	-2.28405 	-1.96525 	-0.71295 	-1.06245 	-0.82880 	-0.38935 	-0.06345 	-0.64130 	0.11130 	0.04105 	0.60700 	0.75020 	0.95875 	1.03950 	1.09980 	0.58355 	-0.21315 
-2.26995 	-2.71565 	-3.46055 	-2.70135 	-2.05230 	-1.55480 	-3.17740 	-2.65970 	-1.71040 	-1.00830 	-2.30990 	-1.98445 	-0.74945 	-1.11550 	-0.87965 	-0.44830 	-0.11395 	-0.66745 	0.05840 	-0.00680 	0.54545 	0.71755 	0.90725 	0.98225 	1.06135 	0.56130 	-0.21795 
-2.23855 	-2.70515 	-3.44715 	-2.69660 	-2.05570 	-1.58260 	-3.17200 	-2.67170 	-1.75265 	-1.03180 	-2.33085 	-1.99910 	-0.78535 	-1.16245 	-0.92545 	-0.50260 	-0.16130 	-0.68425 	0.00980 	-0.05030 	0.48785 	0.68640 	0.85935 	0.92930 	1.02490 	0.54160 	-0.22115 
-2.20250 	-2.69295 	-3.43005 	-2.68870 	-2.05825 	-1.60250 	-3.16225 	-2.67875 	-1.79585 	-1.05785 	-2.34630 	-2.00875 	-0.81915 	-1.20285 	-0.96540 	-0.55140 	-0.20465 	-0.69210 	-0.03380 	-0.08880 	0.43515 	0.65720 	0.81620 	0.88160 	0.99090 	0.52540 	-0.22185 
-2.16230 	-2.67780 	-3.40870 	-2.67705 	-2.05975 	-1.61370 	-3.14790 	-2.68030 	-1.83895 	-1.08505 	-2.35580 	-2.01280 	-0.84965 	-1.23580 	-0.99895 	-0.59405 	-0.24340 	-0.69120 	-0.07150 	-0.12155 	0.38810 	0.63030 	0.77910 	0.84015 	0.95995 	0.51380 	-0.21890 
-2.11830 	-2.65835 	-3.38245 	-2.66135 	-2.06015 	-1.61600 	-3.12850 	-2.67580 	-1.88050 	-1.11225 	-2.35900 	-2.01095 	-0.87585 	-1.25985 	-1.02560 	-0.62995 	-0.27710 	-0.68155 	-0.10285 	-0.14800 	0.34735 	0.60590 	0.74920 	0.80560 	0.93265 	0.50795 	-0.21115 
-2.07100 	-2.63325 	-3.35080 	-2.64085 	-2.05910 	-1.60950 	-3.10380 	-2.66470 	-1.91870 	-1.13865 	-2.35585 	-2.00305 	-0.89750 	-1.27290 	-1.04500 	-0.65880 	-0.30585 	-0.66330 	-0.12750 	-0.16790 	0.31330 	0.58435 	0.72735 	0.77865 	0.90955 	0.50875 	-0.19765 
-2.02085 	-2.60115 	-3.31350 	-2.61530 	-2.05605 	-1.59480 	-3.07380 	-2.64665 	-1.95190 	-1.16390 	-2.34640 	-1.98915 	-0.91475 	-1.27270 	-1.05725 	-0.68075 	-0.32985 	-0.63615 	-0.14535 	-0.18115 	0.28595 	0.56560 	0.71400 	0.75935 	0.89085 	0.51665 	-0.17775 
-1.96835 	-2.56100 	-3.27035 	-2.58450 	-2.05050 	-1.57295 	-3.03855 	-2.62165 	-1.97845 	-1.18795 	-2.33080 	-1.96950 	-0.92840 	-1.25680 	-1.06260 	-0.69605 	-0.34970 	-0.59990 	-0.15685 	-0.18815 	0.26490 	0.54975 	0.70905 	0.74730 	0.87645 	0.53165 	-0.15135 
-1.91395 	-2.51225 	-3.22165 	-2.54845 	-2.04155 	-1.54495 	-2.99840 	-2.58990 	-1.99690 	-1.21095 	-2.30960 	-1.94470 	-0.93945 	-1.22325 	-1.06175 	-0.70550 	-0.36625 	-0.55465 	-0.16260 	-0.18950 	0.24910 	0.53650 	0.71180 	0.74160 	0.86590 	0.55320 	-0.11900 
-1.85830 	-2.45480 	-3.16795 	-2.50760 	-2.02865 	-1.51190 	-2.95405 	-2.55200 	-2.00650 	-1.23245 	-2.28355 	-1.91565 	-0.94920 	-1.17110 	-1.05550 	-0.71000 	-0.38010 	-0.50095 	-0.16345 	-0.18620 	0.23750 	0.52560 	0.72105 	0.74110 	0.85845 	0.58005 	-0.08145 
-1.80180 	-2.38900 	-3.11020 	-2.46275 	-2.01120 	-1.47470 	-2.90630 	-2.50910 	-2.00720 	-1.25165 	-2.25360 	-1.88360 	-0.95900 	-1.10045 	-1.04495 	-0.71065 	-0.39220 	-0.43995 	-0.16060 	-0.17945 	0.22850 	0.51660 	0.73550 	0.74440 	0.85305 	0.61075 	-0.03995 
-1.74480 	-2.31595 	-3.04960 	-2.41485 	-1.98915 	-1.43425 	-2.85635 	-2.46300 	-1.99980 	-1.26705 	-2.22100 	-1.85025 	-0.97035 	-1.01285 	-1.03135 	-0.70870 	-0.40330 	-0.37335 	-0.15535 	-0.17050 	0.22090 	0.50875 	0.75350 	0.75000 	0.84860 	0.64375 	0.00410 
-1.68765 	-2.23745 	-2.98765 	-2.36560 	-1.96315 	-1.39135 	-2.80565 	-2.41555 	-1.98605 	-1.27685 	-2.18720 	-1.81765 	-0.98475 	-0.91105 	-1.01620 	-0.70560 	-0.41405 	-0.30350 	-0.14885 	-0.16070 	0.21335 	0.50135 	0.77325 	0.75650 	0.84390 	0.67730 	0.04935 
-1.63080 	-2.15555 	-2.92615 	-2.31655 	-1.93415 	-1.34660 	-2.75595 	-2.36895 	-1.96795 	-1.27915 	-2.15390 	-1.78765 	-1.00345 	-0.79910 	-1.00075 	-0.70245 	-0.42505 	-0.23265 	-0.14225 	-0.15140 	0.20490 	0.49345 	0.79325 	0.76265 	0.83780 	0.70990 	0.09435 
-1.57470 	-2.07280 	-2.86680 	-2.26925 	-1.90325 	-1.30080 	-2.70875 	-2.32505 	-1.94770 	-1.27290 	-2.12250 	-1.76170 	-1.02740 	-0.68160 	-0.98620 	-0.70010 	-0.43680 	-0.16315 	-0.13670 	-0.14335 	0.19495 	0.48435 	0.81210 	0.76760 	0.82940 	0.74035 	0.13815 
-1.51960 	-1.99185 	-2.81120 	-2.22495 	-1.87140 	-1.25475 	-2.66560 	-2.28520 	-1.92690 	-1.25780 	-2.09425 	-1.74065 	-1.05680 	-0.56345 	-0.97360 	-0.69915 	-0.44955 	-0.09735 	-0.13285 	-0.13745 	0.18325 	0.47345 	0.82855 	0.77060 	0.81815 	0.76800 	0.17985 
-1.46575 	-1.91485 	-2.76080 	-2.18460 	-1.83920 	-1.20905 	-2.62760 	-2.25020 	-1.90695 	-1.23455 	-2.07015 	-1.72465 	-1.09175 	-0.44925 	-0.96340 	-0.69975 	-0.46325 	-0.03755 	-0.13125 	-0.13410 	0.16965 	0.46025 	0.84195 	0.77150 	0.80400 	0.79250 	0.21920 
-1.41335 	-1.84405 	-2.71655 	-2.14865 	-1.80710 	-1.16450 	-2.59565 	-2.22045 	-1.88865 	-1.20455 	-2.05090 	-1.71350 	-1.13180 	-0.34350 	-0.95615 	-0.70190 	-0.47800 	0.01380 	-0.13225 	-0.13340 	0.15440 	0.44455 	0.85180 	0.77025 	0.78730 	0.81395 	0.25605 
-1.36235 	-1.78095 	-2.67920 	-2.11755 	-1.77545 	-1.12180 	-2.57050 	-2.19640 	-1.87230 	-1.16990 	-2.03715 	-1.70695 	-1.17625 	-0.24990 	-0.95220 	-0.70555 	-0.49360 	0.05450 	-0.13595 	-0.13565 	0.13765 	0.42610 	0.85800 	0.76710 	0.76865 	0.83255 	0.29040 
-1.31295 	-1.72680 	-2.64945 	-2.09160 	-1.74455 	-1.08155 	-2.55270 	-2.17840 	-1.85800 	-1.13315 	-2.02940 	-1.70480 	-1.22430 	-0.17155 	-0.95180 	-0.71075 	-0.51015 	0.08220 	-0.14260 	-0.14095 	0.11940 	0.40455 	0.86050 	0.76220 	0.74890 	0.84840 	0.32220 
-1.26545 	-1.68240 	-2.62760 	-2.07110 	-1.71535 	-1.04445 	-2.54280 	-2.16690 	-1.84595 	-1.09705 	-2.02820 	-1.70725 	-1.27495 	-0.11070 	-0.95535 	-0.71785 	-0.52760 	0.09490 	-0.15255 	-0.14955 	0.09975 	0.37965 	0.85950 	0.75585 	0.72855 	0.86185 	0.35135 
-1.22020 	-1.64810 	-2.61415 	-2.05685 	-1.68910 	-1.01110 	-2.54140 	-2.16270 	-1.83665 	-1.06450 	-2.03400 	-1.71490 	-1.32750 	-0.06840 	-0.96350 	-0.72740 	-0.54620 	0.09090 	-0.16605 	-0.16175 	0.07850 	0.35080 	0.85510 	0.74805 	0.70805 	0.87280 	0.37750 
-1.17790 	-1.62370 	-2.60920 	-2.04960 	-1.66755 	-0.98245 	-2.54890 	-2.16665 	-1.83090 	-1.03810 	-2.04745 	-1.72860 	-1.38115 	-0.04490 	-0.97670 	-0.74000 	-0.56625 	0.06925 	-0.18360 	-0.17795 	0.05535 	0.31755 	0.84745 	0.73870 	0.68745 	0.88115 	0.40035 
-1.13900 	-1.60865 	-2.61310 	-2.05010 	-1.65265 	-0.95930 	-2.56580 	-2.17970 	-1.82950 	-1.01985 	-2.06895 	-1.74920 	-1.43575 	-0.03945 	-0.99555 	-0.75625 	-0.58835 	0.03000 	-0.20560 	-0.19845 	0.03000 	0.27975 	0.83660 	0.72775 	0.66665 	0.88680 	0.41925 
-1.10425 	-1.60215 	-2.62565 	-2.05905 	-1.64625 	-0.94255 	-2.59230 	-2.20240 	-1.83355 	-1.01090 	-2.09860 	-1.77755 	-1.49080 	-0.05040 	-1.02045 	-0.77680 	-0.61305 	-0.02545 	-0.23225 	-0.22345 	0.00235 	0.23735 	0.82265 	0.71490 	0.64525 	0.88925 	0.43340 
-1.07410 	-1.60280 	-2.64680 	-2.07670 	-1.64950 	-0.93290 	-2.62825 	-2.23505 	-1.84390 	-1.01150 	-2.13635 	-1.81395 	-1.54630 	-0.07590 	-1.05165 	-0.80180 	-0.64085 	-0.09460 	-0.26365 	-0.25280 	-0.02755 	0.19075 	0.80600 	0.70020 	0.62305 	0.88830 	0.44205 
-1.04885 	-1.60915 	-2.67575 	-2.10305 	-1.66305 	-0.93070 	-2.67305 	-2.27740 	-1.86110 	-1.02070 	-2.18165 	-1.85835 	-1.60200 	-0.11325 	-1.08880 	-0.83115 	-0.67200 	-0.17355 	-0.29955 	-0.28605 	-0.05930 	0.14105 	0.78700 	0.68370 	0.59995 	0.88365 	0.44480 
-1.02855 	-1.61955 	-2.71175 	-2.13765 	-1.68700 	-0.93590 	-2.72605 	-2.32855 	-1.88565 	-1.03715 	-2.23360 	-1.91010 	-1.65775 	-0.15955 	-1.13145 	-0.86455 	-0.70640 	-0.25735 	-0.33945 	-0.32245 	-0.09200 	0.08985 	0.76640 	0.66590 	0.57635 	0.87555 	0.44150 
-1.01315 	-1.63245 	-2.75385 	-2.17980 	-1.72085 	-0.94840 	-2.78605 	-2.38750 	-1.91775 	-1.05920 	-2.29100 	-1.96810 	-1.71310 	-0.21145 	-1.17860 	-0.90120 	-0.74325 	-0.34055 	-0.38225 	-0.36085 	-0.12465 	0.03925 	0.74525 	0.64755 	0.55290 	0.86440 	0.43260 
-1.00230 	-1.64645 	-2.80090 	-2.22860 	-1.76370 	-0.96790 	-2.85170 	-2.45260 	-1.95715 	-1.08555 	-2.35235 	-2.03085 	-1.76755 	-0.26550 	-1.22895 	-0.94015 	-0.78155 	-0.41755 	-0.42685 	-0.39990 	-0.15565 	-0.00830 	0.72465 	0.62980 	0.53085 	0.85120 	0.41910 
-0.99565 	-1.66060 	-2.85170 	-2.28260 	-1.81415 	-0.99405 	-2.92160 	-2.52200 	-2.00320 	-1.11550 	-2.41600 	-2.09660 	-1.82030 	-0.31850 	-1.28100 	-0.98020 	-0.81995 	-0.48355 	-0.47175 	-0.43825 	-0.18370 	-0.05050 	0.70580 	0.61400 	0.51130 	0.83700 	0.40230 
-0.99280 	-1.67435 	-2.90540 	-2.34065 	-1.87075 	-1.02620 	-2.99430 	-2.59420 	-2.05475 	-1.14875 	-2.48060 	-2.16380 	-1.87040 	-0.36750 	-1.33335 	-1.02040 	-0.85710 	-0.53495 	-0.51570 	-0.47445 	-0.20745 	-0.08555 	0.68975 	0.60110 	0.49535 	0.82295 	0.38350 
-0.99350 	-1.68805 	-2.96145 	-2.40180 	-1.93225 	-1.06365 	-3.06890 	-2.66795 	-2.11080 	-1.18520 	-2.54505 	-2.23160 	-1.91695 	-0.41075 	-1.38485 	-1.06000 	-0.89170 	-0.56980 	-0.55775 	-0.50765 	-0.22630 	-0.11225 	0.67710 	0.59225 	0.48405 	0.81020 	0.36415 
-0.99785 	-1.70270 	-3.01980 	-2.46530 	-1.99765 	-1.10550 	-3.14500 	-2.74265 	-2.17015 	-1.22445 	-2.60875 	-2.29960 	-1.95930 	-0.44715 	-1.43490 	-1.09870 	-0.92300 	-0.58820 	-0.59725 	-0.53755 	-0.23985 	-0.13015 	0.66815 	0.58795 	0.47785 	0.79950 	0.34540 
-1.00610 	-1.71980 	-3.08090 	-2.53105 	-2.06645 	-1.15085 	-3.22245 	-2.81820 	-2.23200 	-1.26575 	-2.67160 	-2.36805 	-1.99665 	-0.47660 	-1.48310 	-1.13655 	-0.95065 	-0.59150 	-0.63400 	-0.56405 	-0.24845 	-0.13935 	0.66295 	0.58855 	0.47740 	0.79190 	0.32855 
-1.01875 	-1.74120 	-3.14535 	-2.59910 	-2.13830 	-1.19905 	-3.30170 	-2.89470 	-2.29545 	-1.30780 	-2.73365 	-2.43745 	-2.02865 	-0.49990 	-1.52965 	-1.17390 	-0.97450 	-0.58250 	-0.66805 	-0.58760 	-0.25265 	-0.14020 	0.66110 	0.59415 	0.48285 	0.78785 	0.31470 
-1.03620 	-1.76870 	-3.21390 	-2.66955 	-2.21280 	-1.24945 	-3.38280 	-2.97245 	-2.35980 	-1.34900 	-2.79525 	-2.50830 	-2.05485 	-0.51800 	-1.57460 	-1.21100 	-0.99475 	-0.56475 	-0.69955 	-0.60865 	-0.25335 	-0.13330 	0.66235 	0.60475 	0.49470 	0.78800 	0.30485 
-1.05865 	-1.80375 	-3.28700 	-2.74260 	-2.28955 	-1.30155 	-3.46620 	-3.05155 	-2.42435 	-1.38755 	-2.85665 	-2.58085 	-2.07520 	-0.53220 	-1.61820 	-1.24805 	-1.01155 	-0.54230 	-0.72875 	-0.62765 	-0.25110 	-0.11890 	0.66640 	0.62045 	0.51325 	0.79280 	0.29980 
-1.08610 	-1.84735 	-3.36495 	-2.81835 	-2.36800 	-1.35520 	-3.55180 	-3.13220 	-2.48875 	-1.42215 	-2.91795 	-2.65485 	-2.09020 	-0.54385 	-1.66070 	-1.28515 	-1.02505 	-0.51940 	-0.75585 	-0.64520 	-0.24610 	-0.09735 	0.67295 	0.64120 	0.53855 	0.80245 	0.30000 
-1.11865 	-1.90025 	-3.44810 	-2.89710 	-2.44795 	-1.41045 	-3.63990 	-3.21450 	-2.55295 	-1.45235 	-2.97945 	-2.73025 	-2.10065 	-0.55450 	-1.70225 	-1.32225 	-1.03570 	-0.49980 	-0.78105 	-0.66170 	-0.23875 	-0.06910 	0.68160 	0.66675 	0.57070 	0.81680 	0.30535 
-1.15625 	-1.96260 	-3.53670 	-2.97930 	-2.52920 	-1.46760 	-3.73060 	-3.29900 	-2.61720 	-1.47840 	-3.04165 	-2.80695 	-2.10800 	-0.56590 	-1.74330 	-1.35965 	-1.04405 	-0.48715 	-0.80480 	-0.67780 	-0.22900 	-0.03505 	0.69175 	0.69660 	0.60920 	0.83535 	0.31520 
-1.19890 	-2.03450 	-3.63120 	-3.06580 	-2.61215 	-1.52750 	-3.82450 	-3.38640 	-2.68175 	-1.50175 	-3.10530 	-2.88505 	-2.11380 	-0.58025 	-1.78455 	-1.39755 	-1.05110 	-0.48385 	-0.82795 	-0.69425 	-0.21740 	0.00365 	0.70260 	0.72980 	0.65295 	0.85695 	0.32830 
