[Subject]	
[Date]	05/30/2016
[Time]	17:35:24
[Channels]	27
[Rate]	1000.000000
[Type]	Average
[Points]	1351
[Xmin]	-100.00000
[Sweeps]	5047
[Accepted]	69
[Rejected]	4978
[Domain]	Time
[Rows]	Points																									
[Electrode Labels]																											
[FP2]	        [AF4]	        [F2]	        [F4]	        [F6]	        [F8]	        [FC2]	        [FC4]	        [FC6]	        [FT8]	        [C2]	        [C4]	        [C6]	        [T8]	        [CP2]	        [CP4]	        [CP6]	        [TP8]	        [P2]	        [P4]	        [P6]	        [P8]	        [PO4]	        [PO6]	        [PO8]	        [O2]	        [CB2]	
[Electrode XUnits]																											
[Default]	[Default]	[Default]	[Default]	[Default]	[Default]	[Default]	[Default]	[Default]	[Default]	[Default]	[Default]	[Default]	[Default]	[Default]	[Default]	[Default]	[Default]	[Default]	[Default]	[Default]	[Default]	[Default]	[Default]	[Default]	[Default]	[Default]	
[Electrode YUnits]																											
[Default]	[Default]	[Default]	[Default]	[Default]	[Default]	[Default]	[Default]	[Default]	[Default]	[Default]	[Default]	[Default]	[Default]	[Default]	[Default]	[Default]	[Default]	[Default]	[Default]	[Default]	[Default]	[Default]	[Default]	[Default]	[Default]	[Default]	
[Average Data]
1.71235 	1.50570 	1.43930 	1.59465 	1.76655 	1.55230 	1.51690 	1.62340 	1.54655 	1.22590 	1.66355 	1.36310 	1.43680 	1.00760 	1.35425 	1.42925 	0.97985 	0.70610 	0.88225 	0.72905 	0.27605 	0.04655 	-0.13565 	-0.30710 	-0.29550 	-0.41100 	-0.20505 
1.71440 	1.51795 	1.47250 	1.62365 	1.78075 	1.59105 	1.57135 	1.67735 	1.56765 	1.29950 	1.73680 	1.45390 	1.42875 	1.14425 	1.46675 	1.52205 	1.02095 	0.87940 	0.97985 	0.81635 	0.34625 	0.12470 	-0.07885 	-0.23655 	-0.22145 	-0.36575 	-0.17170 
1.70060 	1.50920 	1.49395 	1.64145 	1.78095 	1.61720 	1.61540 	1.72070 	1.57535 	1.36135 	1.79905 	1.53765 	1.40760 	1.27430 	1.57165 	1.60820 	1.05900 	1.03670 	1.07235 	0.89980 	0.41640 	0.20180 	-0.01960 	-0.16570 	-0.14875 	-0.32175 	-0.14360 
1.67235 	1.48160 	1.50445 	1.64915 	1.76775 	1.62845 	1.64960 	1.75455 	1.57095 	1.40805 	1.85030 	1.61500 	1.37560 	1.39230 	1.66840 	1.68775 	1.09455 	1.17205 	1.15935 	0.97925 	0.48615 	0.27640 	0.04240 	-0.09495 	-0.07825 	-0.27895 	-0.12160 
1.63145 	1.43880 	1.50550 	1.64830 	1.74275 	1.62355 	1.67490 	1.78060 	1.55650 	1.43725 	1.89125 	1.68685 	1.33610 	1.49335 	1.75680 	1.76115 	1.12825 	1.28110 	1.24090 	1.05475 	0.55480 	0.34730 	0.10745 	-0.02405 	-0.01015 	-0.23695 	-0.10590 
1.57980 	1.38475 	1.49835 	1.64030 	1.70735 	1.60180 	1.69225 	1.80035 	1.53425 	1.44785 	1.92230 	1.75385 	1.29240 	1.57350 	1.83665 	1.82845 	1.16005 	1.36070 	1.31695 	1.12615 	0.62165 	0.41325 	0.17595 	0.04685 	0.05555 	-0.19515 	-0.09600 
1.51865 	1.32350 	1.48380 	1.62595 	1.66270 	1.56345 	1.70210 	1.81460 	1.50575 	1.43985 	1.94370 	1.81590 	1.24700 	1.63010 	1.90720 	1.88930 	1.18920 	1.40930 	1.38705 	1.19275 	0.68520 	0.47300 	0.24715 	0.11745 	0.11875 	-0.15310 	-0.09150 
1.44900 	1.25850 	1.46230 	1.60550 	1.60965 	1.50925 	1.70415 	1.82305 	1.47195 	1.41415 	1.95500 	1.87205 	1.20170 	1.66210 	1.96765 	1.94255 	1.21440 	1.42670 	1.45045 	1.25360 	0.74375 	0.52530 	0.32035 	0.18735 	0.17940 	-0.11070 	-0.09120 
1.37180 	1.19285 	1.43385 	1.57890 	1.54900 	1.44090 	1.69795 	1.82490 	1.43345 	1.37260 	1.95570 	1.92035 	1.15765 	1.67025 	2.01690 	1.98695 	1.23425 	1.41425 	1.50630 	1.30755 	0.79540 	0.56920 	0.39440 	0.25615 	0.23755 	-0.06765 	-0.09405 
1.28795 	1.12915 	1.39870 	1.54625 	1.48210 	1.36090 	1.68310 	1.81880 	1.39065 	1.31760 	1.94540 	1.95880 	1.11570 	1.65740 	2.05440 	2.02115 	1.24805 	1.37510 	1.55420 	1.35385 	0.83905 	0.60450 	0.46835 	0.32360 	0.29350 	-0.02365 	-0.09840 
1.19885 	1.06945 	1.35730 	1.50805 	1.41060 	1.27250 	1.65955 	1.80360 	1.34395 	1.25220 	1.92440 	1.98535 	1.07710 	1.62760 	2.08015 	2.04460 	1.25590 	1.31355 	1.59420 	1.39235 	0.87450 	0.63210 	0.54175 	0.39015 	0.34775 	0.02195 	-0.10240 
1.10610 	1.01515 	1.31055 	1.46495 	1.33675 	1.17950 	1.62750 	1.77880 	1.29405 	1.17980 	1.89325 	1.99860 	1.04295 	1.58550 	2.09480 	2.05710 	1.25900 	1.23520 	1.62700 	1.42350 	0.90260 	0.65335 	0.61450 	0.45660 	0.40115 	0.07025 	-0.10405 
1.01130 	0.96690 	1.25935 	1.41805 	1.26285 	1.08530 	1.58775 	1.74415 	1.24170 	1.10370 	1.85310 	1.99765 	1.01445 	1.53520 	2.09945 	2.05930 	1.25870 	1.14625 	1.65360 	1.44825 	0.92495 	0.67025 	0.68700 	0.52415 	0.45470 	0.12230 	-0.10120 
0.91570 	0.92415 	1.20465 	1.36835 	1.19085 	0.99295 	1.54110 	1.70025 	1.18820 	1.02700 	1.80550 	1.98235 	0.99235 	1.47995 	2.09525 	2.05200 	1.25660 	1.05255 	1.67520 	1.46785 	0.94355 	0.68480 	0.75975 	0.59385 	0.50915 	0.17940 	-0.09175 
0.82050 	0.88540 	1.14700 	1.31660 	1.12225 	0.90445 	1.48850 	1.64800 	1.13455 	0.95205 	1.75165 	1.95315 	0.97710 	1.42130 	2.08335 	2.03600 	1.25350 	0.95950 	1.69265 	1.48320 	0.96040 	0.69875 	0.83315 	0.66655 	0.56520 	0.24235 	-0.07395 
0.72630 	0.84815 	1.08680 	1.26320 	1.05765 	0.82070 	1.43035 	1.58835 	1.08175 	0.88040 	1.69295 	1.91110 	0.96820 	1.35985 	2.06465 	2.01205 	1.24965 	0.87120 	1.70645 	1.49490 	0.97675 	0.71325 	0.90750 	0.74275 	0.62325 	0.31170 	-0.04625 
0.63340 	0.80940 	1.02415 	1.20850 	0.99665 	0.74190 	1.36740 	1.52255 	1.03005 	0.81280 	1.63050 	1.85770 	0.96450 	1.29505 	2.03970 	1.98080 	1.24465 	0.79045 	1.71675 	1.50320 	0.99340 	0.72880 	0.98270 	0.82250 	0.68350 	0.38760 	-0.00755 
0.54210 	0.76640 	0.95925 	1.15240 	0.93840 	0.66760 	1.30015 	1.45200 	0.97945 	0.74935 	1.56525 	1.79505 	0.96390 	1.22630 	2.00885 	1.94280 	1.23765 	0.71845 	1.72330 	1.50810 	1.01065 	0.74565 	1.05860 	0.90535 	0.74585 	0.46970 	0.04260 
0.45275 	0.71680 	0.89235 	1.09515 	0.88210 	0.59690 	1.22945 	1.37830 	0.92965 	0.68915 	1.49840 	1.72575 	0.96395 	1.15295 	1.97255 	1.89880 	1.22770 	0.65515 	1.72580 	1.50925 	1.02800 	0.76325 	1.13495 	0.99055 	0.81015 	0.55745 	0.10385 
0.36600 	0.65915 	0.82430 	1.03695 	0.82715 	0.52845 	1.15615 	1.30350 	0.88060 	0.63075 	1.43095 	1.65250 	0.96225 	1.07490 	1.93095 	1.84945 	1.21395 	0.59955 	1.72375 	1.50640 	1.04495 	0.78110 	1.21120 	1.07700 	0.87565 	0.64965 	0.17505 
0.28280 	0.59320 	0.75615 	0.97870 	0.77395 	0.46075 	1.08180 	1.22970 	0.83235 	0.57220 	1.36405 	1.57830 	0.95700 	0.99255 	1.88455 	1.79595 	1.19595 	0.54985 	1.71665 	1.49925 	1.06095 	0.79830 	1.28685 	1.16330 	0.94155 	0.74475 	0.25430 
0.20425 	0.52000 	0.68930 	0.92135 	0.72325 	0.39265 	1.00795 	1.15930 	0.78545 	0.51195 	1.29890 	1.50605 	0.94740 	0.90720 	1.83400 	1.73930 	1.17375 	0.50465 	1.70435 	1.48770 	1.07545 	0.81425 	1.36115 	1.24830 	1.00675 	0.84085 	0.33905 
0.13210 	0.44165 	0.62555 	0.86645 	0.67655 	0.32330 	0.93635 	1.09465 	0.74040 	0.44895 	1.23665 	1.43835 	0.93375 	0.82100 	1.78010 	1.68085 	1.14795 	0.46285 	1.68705 	1.47205 	1.08845 	0.82850 	1.43360 	1.33080 	1.07040 	0.93605 	0.42680 
0.06800 	0.36150 	0.56665 	0.81565 	0.63560 	0.25285 	0.86885 	1.03770 	0.69785 	0.38350 	1.17840 	1.37735 	0.91725 	0.73665 	1.72390 	1.62200 	1.12015 	0.42430 	1.66530 	1.45315 	1.10030 	0.84100 	1.50415 	1.41020 	1.13190 	1.02865 	0.51515 
0.01390 	0.28390 	0.51460 	0.77055 	0.60205 	0.18235 	0.80730 	0.99020 	0.65860 	0.31690 	1.12525 	1.32440 	0.89965 	0.65740 	1.66665 	1.56410 	1.09200 	0.38970 	1.64005 	1.43185 	1.11195 	0.85260 	1.57265 	1.48645 	1.19125 	1.11735 	0.60240 
-0.02855 	0.21330 	0.47100 	0.73250 	0.57685 	0.11365 	0.75305 	0.95305 	0.62350 	0.25105 	1.07800 	1.28005 	0.88280 	0.58635 	1.60925 	1.50820 	1.06550 	0.36060 	1.61235 	1.40945 	1.12475 	0.86430 	1.63940 	1.55980 	1.24855 	1.20135 	0.68730 
-0.05825 	0.15410 	0.43680 	0.70190 	0.56010 	0.04900 	0.70685 	0.92575 	0.59305 	0.18810 	1.03650 	1.24345 	0.86790 	0.52555 	1.55235 	1.45480 	1.04200 	0.33865 	1.58310 	1.38675 	1.13960 	0.87735 	1.70415 	1.63045 	1.30425 	1.27990 	0.76880 
-0.07500 	0.10980 	0.41215 	0.67825 	0.55110 	-0.00920 	0.66835 	0.90680 	0.56720 	0.12985 	1.00000 	1.21235 	0.85505 	0.47565 	1.49560 	1.40330 	1.02200 	0.32500 	1.55235 	1.36410 	1.15715 	0.89265 	1.76630 	1.69830 	1.35830 	1.35275 	0.84600 
-0.07945 	0.08235 	0.39590 	0.65990 	0.54815 	-0.05860 	0.63635 	0.89300 	0.54540 	0.07800 	0.96650 	1.18335 	0.84335 	0.43550 	1.43805 	1.35235 	1.00495 	0.31930 	1.51945 	1.34080 	1.17680 	0.91010 	1.82435 	1.76265 	1.41005 	1.41915 	0.91765 
-0.07350 	0.07220 	0.38590 	0.64445 	0.54890 	-0.09710 	0.60825 	0.88020 	0.52620 	0.03440 	0.93315 	1.15180 	0.83075 	0.40200 	1.37760 	1.29940 	0.98930 	0.31985 	1.48275 	1.31540 	1.19715 	0.92880 	1.87615 	1.82185 	1.45820 	1.47825 	0.98215 
-0.06000 	0.07745 	0.37890 	0.62825 	0.55015 	-0.12315 	0.58060 	0.86300 	0.50745 	0.00100 	0.89620 	1.11250 	0.81420 	0.37025 	1.31125 	1.24130 	0.97240 	0.32305 	1.43960 	1.28545 	1.21550 	0.94670 	1.91850 	1.87350 	1.50025 	1.52855 	1.03750 
-0.04280 	0.09420 	0.37065 	0.60740 	0.54830 	-0.13660 	0.54895 	0.83590 	0.48685 	-0.02115 	0.85120 	1.06005 	0.79075 	0.33430 	1.23570 	1.17450 	0.95120 	0.32460 	1.38685 	1.24775 	1.22880 	0.96110 	1.94770 	1.91450 	1.53340 	1.56810 	1.08150 
-0.02600 	0.11705 	0.35630 	0.57755 	0.53950 	-0.13885 	0.50890 	0.79375 	0.46195 	-0.03185 	0.79400 	0.98975 	0.75760 	0.28795 	1.14730 	1.09550 	0.92260 	0.32020 	1.32100 	1.19890 	1.23330 	0.96885 	1.95980 	1.94140 	1.55435 	1.59445 	1.11160 
-0.01405 	0.13950 	0.33115 	0.53500 	0.52015 	-0.13240 	0.45615 	0.73270 	0.43095 	-0.03250 	0.72090 	0.89845 	0.71300 	0.22555 	1.04295 	1.00150 	0.88380 	0.30640 	1.23890 	1.13575 	1.22550 	0.96720 	1.95120 	1.95105 	1.55990 	1.60545 	1.12575 
-0.01060 	0.15485 	0.29140 	0.47665 	0.48760 	-0.12105 	0.38760 	0.65030 	0.39265 	-0.02570 	0.62930 	0.78490 	0.65635 	0.14335 	0.92045 	0.89085 	0.83285 	0.28125 	1.13810 	1.05560 	1.20245 	0.95365 	1.91915 	1.94070 	1.54775 	1.59900 	1.12250 
-0.01860 	0.15695 	0.23435 	0.40095 	0.44000 	-0.10860 	0.30140 	0.54640 	0.34675 	-0.01475 	0.51800 	0.64975 	0.58790 	0.04030 	0.77865 	0.76285 	0.76865 	0.24450 	1.01715 	0.95700 	1.16210 	0.92715 	1.86200 	1.90865 	1.51650 	1.57405 	1.10125 
-0.03950 	0.14085 	0.15860 	0.30760 	0.37675 	-0.09880 	0.19710 	0.42200 	0.29370 	-0.00290 	0.38695 	0.49525 	0.50840 	-0.08180 	0.61780 	0.61825 	0.69125 	0.19735 	0.87580 	0.83925 	1.10350 	0.88740 	1.77935 	1.85425 	1.46595 	1.53040 	1.06240 
-0.07395 	0.10315 	0.06425 	0.19735 	0.29815 	-0.09475 	0.07555 	0.27950 	0.23430 	0.00695 	0.23745 	0.32485 	0.41905 	-0.21820 	0.43895 	0.45850 	0.60130 	0.14220 	0.71485 	0.70310 	1.02680 	0.83525 	1.67220 	1.77790 	1.39705 	1.46855 	1.00740 
-0.12130 	0.04220 	-0.04755 	0.07225 	0.20535 	-0.09905 	-0.06165 	0.12195 	0.16965 	0.01275 	0.07160 	0.14250 	0.32100 	-0.36235 	0.24425 	0.28590 	0.50015 	0.08200 	0.53600 	0.54985 	0.93330 	0.77250 	1.54265 	1.68095 	1.31190 	1.39005 	0.93840 
-0.17995 	-0.04165 	-0.17430 	-0.06475 	0.10060 	-0.11300 	-0.21170 	-0.04705 	0.10100 	0.01320 	-0.10770 	-0.04735 	0.21550 	-0.50695 	0.03650 	0.10305 	0.38925 	0.01965 	0.34175 	0.38185 	0.82480 	0.70120 	1.39370 	1.56540 	1.21295 	1.29690 	0.85810 
-0.24760 	-0.14635 	-0.31280 	-0.21020 	-0.01335 	-0.13685 	-0.37160 	-0.22370 	0.02990 	0.00780 	-0.29705 	-0.24010 	0.10415 	-0.64490 	-0.18110 	-0.08680 	0.27050 	-0.04240 	0.13530 	0.20205 	0.70405 	0.62375 	1.22870 	1.43375 	1.10320 	1.19135 	0.76900 
-0.32135 	-0.26810 	-0.45920 	-0.36015 	-0.13300 	-0.16910 	-0.53770 	-0.40390 	-0.04190 	-0.00335 	-0.49270 	-0.43165 	-0.01115 	-0.77080 	-0.40470 	-0.28060 	0.14555 	-0.10210 	-0.07975 	0.01370 	0.57370 	0.54255 	1.05155 	1.28870 	0.98575 	1.07570 	0.67365 
-0.39785 	-0.40165 	-0.60915 	-0.51045 	-0.25495 	-0.20725 	-0.70625 	-0.58380 	-0.11230 	-0.02005 	-0.69060 	-0.61785 	-0.12790 	-0.88055 	-0.63070 	-0.47515 	0.01640 	-0.15775 	-0.29955 	-0.17955 	0.43665 	0.45950 	0.86600 	1.13315 	0.86330 	0.95230 	0.57420 
-0.47350 	-0.54100 	-0.75830 	-0.65705 	-0.37575 	-0.24785 	-0.87310 	-0.75945 	-0.17965 	-0.04200 	-0.88680 	-0.79515 	-0.24340 	-0.97200 	-0.85520 	-0.66730 	-0.11520 	-0.20795 	-0.52030 	-0.37415 	0.29565 	0.37660 	0.67590 	0.96995 	0.73855 	0.82320 	0.47240 
-0.54485 	-0.67945 	-0.90230 	-0.79645 	-0.49280 	-0.28720 	-1.03465 	-0.92720 	-0.24275 	-0.06895 	-1.07740 	-0.96060 	-0.35490 	-1.04425 	-1.07460 	-0.85435 	-0.24735 	-0.25110 	-0.73835 	-0.56680 	0.15330 	0.29510 	0.48465 	0.80205 	0.61400 	0.69025 	0.36970 
-0.60865 	-0.81065 	-1.03745 	-0.92575 	-0.60405 	-0.32220 	-1.18745 	-1.08425 	-0.30125 	-0.10105 	-1.25915 	-1.11190 	-0.46000 	-1.09740 	-1.28590 	-1.03380 	-0.37820 	-0.28550 	-0.95030 	-0.75440 	0.01195 	0.21625 	0.29510 	0.63210 	0.49150 	0.55510 	0.26705 
-0.66245 	-0.92870 	-1.16080 	-1.04300 	-0.70835 	-0.35085 	-1.32890 	-1.22815 	-0.35605 	-0.13870 	-1.42930 	-1.24775 	-0.55690 	-1.13220 	-1.48635 	-1.20395 	-0.50600 	-0.30970 	-1.15355 	-0.93465 	-0.12645 	0.14085 	0.10965 	0.46235 	0.37255 	0.41920 	0.16530 
-0.70445 	-1.02880 	-1.27025 	-1.14690 	-0.80480 	-0.37245 	-1.45675 	-1.35730 	-0.40815 	-0.18225 	-1.58595 	-1.36790 	-0.64455 	-1.14965 	-1.67415 	-1.36350 	-0.62890 	-0.32270 	-1.34605 	-1.10560 	-0.26005 	0.06910 	-0.06990 	0.29480 	0.25820 	0.28385 	0.06505 
-0.73380 	-1.10735 	-1.36415 	-1.23665 	-0.89260 	-0.38715 	-1.56970 	-1.47050 	-0.45865 	-0.23180 	-1.72765 	-1.47240 	-0.72200 	-1.15115 	-1.84770 	-1.51155 	-0.74515 	-0.32455 	-1.52620 	-1.26585 	-0.38745 	0.00110 	-0.24235 	0.13095 	0.14920 	0.15020 	-0.03310 
-0.75030 	-1.16205 	-1.44155 	-1.31190 	-0.97065 	-0.39560 	-1.66645 	-1.56710 	-0.50820 	-0.28655 	-1.85345 	-1.56175 	-0.78885 	-1.13790 	-2.00565 	-1.64735 	-0.85290 	-0.31605 	-1.69280 	-1.41425 	-0.50765 	-0.06320 	-0.40665 	-0.02795 	0.04595 	0.01935 	-0.12835 
-0.75425 	-1.19195 	-1.50190 	-1.37205 	-1.03745 	-0.39825 	-1.74630 	-1.64655 	-0.55670 	-0.34495 	-1.96275 	-1.63660 	-0.84480 	-1.11170 	-2.14700 	-1.77025 	-0.95035 	-0.29940 	-1.84480 	-1.55000 	-0.61940 	-0.12400 	-0.56215 	-0.18065 	-0.05110 	-0.10740 	-0.21925 
-0.74635 	-1.19730 	-1.54495 	-1.41680 	-1.09140 	-0.39580 	-1.80880 	-1.70845 	-0.60355 	-0.40465 	-2.05505 	-1.69750 	-0.88990 	-1.07440 	-2.27070 	-1.87950 	-1.03600 	-0.27795 	-1.98145 	-1.67250 	-0.72195 	-0.18125 	-0.70810 	-0.32610 	-0.14185 	-0.22880 	-0.30450 
-0.72770 	-1.17980 	-1.57090 	-1.44580 	-1.13110 	-0.38860 	-1.85375 	-1.75290 	-0.64770 	-0.46300 	-2.13015 	-1.74485 	-0.92495 	-1.02825 	-2.37610 	-1.97445 	-1.10900 	-0.25610 	-2.10215 	-1.78130 	-0.81485 	-0.23540 	-0.84420 	-0.46345 	-0.22605 	-0.34370 	-0.38245 
-0.69965 	-1.14215 	-1.58030 	-1.45900 	-1.15560 	-0.37740 	-1.88120 	-1.78000 	-0.68790 	-0.51785 	-2.18810 	-1.77900 	-0.95100 	-0.97550 	-2.46255 	-2.05455 	-1.16870 	-0.23890 	-2.20645 	-1.87620 	-0.89770 	-0.28690 	-0.96980 	-0.59195 	-0.30395 	-0.45100 	-0.45170 
-0.66365 	-1.08815 	-1.57385 	-1.45675 	-1.16480 	-0.36300 	-1.89140 	-1.79000 	-0.72305 	-0.56740 	-2.22875 	-1.79985 	-0.96950 	-0.91830 	-2.52965 	-2.11890 	-1.21470 	-0.23170 	-2.29410 	-1.95690 	-0.97065 	-0.33635 	-1.08465 	-0.71110 	-0.37595 	-0.54965 	-0.51115 
-0.62100 	-1.02210 	-1.55255 	-1.43950 	-1.15935 	-0.34600 	-1.88480 	-1.78305 	-0.75190 	-0.61035 	-2.25210 	-1.80705 	-0.98185 	-0.85820 	-2.57690 	-2.16690 	-1.24680 	-0.23885 	-2.36455 	-2.02300 	-1.03350 	-0.38425 	-1.18815 	-0.82040 	-0.44235 	-0.63870 	-0.55980 
-0.57305 	-0.94825 	-1.51720 	-1.40795 	-1.13995 	-0.32680 	-1.86175 	-1.75935 	-0.77315 	-0.64535 	-2.25785 	-1.80000 	-0.98915 	-0.79620 	-2.60375 	-2.19760 	-1.26465 	-0.26315 	-2.41730 	-2.07400 	-1.08640 	-0.43075 	-1.27945 	-0.91935 	-0.50360 	-0.71700 	-0.59675 
-0.52055 	-0.87055 	-1.46860 	-1.36300 	-1.10805 	-0.30545 	-1.82260 	-1.71905 	-0.78560 	-0.67085 	-2.24580 	-1.77830 	-0.99200 	-0.73285 	-2.60985 	-2.21030 	-1.26825 	-0.30535 	-2.45165 	-2.10900 	-1.12915 	-0.47560 	-1.35755 	-1.00730 	-0.55970 	-0.78365 	-0.62130 
-0.46415 	-0.79265 	-1.40770 	-1.30600 	-1.06510 	-0.28160 	-1.76815 	-1.66300 	-0.78880 	-0.68535 	-2.21605 	-1.74200 	-0.99065 	-0.66880 	-2.59515 	-2.20490 	-1.25795 	-0.36460 	-2.46710 	-2.12755 	-1.16180 	-0.51840 	-1.42150 	-1.08380 	-0.61085 	-0.83785 	-0.63315 
-0.40460 	-0.71715 	-1.33570 	-1.23845 	-1.01275 	-0.25510 	-1.69950 	-1.59240 	-0.78275 	-0.68770 	-2.16900 	-1.69210 	-0.98555 	-0.60490 	-2.56025 	-2.18200 	-1.23505 	-0.43835 	-2.46345 	-2.12955 	-1.18470 	-0.55865 	-1.47075 	-1.14885 	-0.65735 	-0.87955 	-0.63270 
-0.34225 	-0.64600 	-1.25375 	-1.16205 	-0.95270 	-0.22575 	-1.61805 	-1.50920 	-0.76855 	-0.67735 	-2.10580 	-1.62995 	-0.97685 	-0.54235 	-2.50620 	-2.14285 	-1.20155 	-0.52315 	-2.44100 	-2.11525 	-1.19850 	-0.59575 	-1.50500 	-1.20240 	-0.69925 	-0.90895 	-0.62105 
-0.27740 	-0.57985 	-1.16300 	-1.07820 	-0.88600 	-0.19345 	-1.52525 	-1.41525 	-0.74735 	-0.65470 	-2.02750 	-1.55740 	-0.96470 	-0.48250 	-2.43470 	-2.08915 	-1.15960 	-0.61450 	-2.40035 	-2.08510 	-1.20375 	-0.62885 	-1.52430 	-1.24470 	-0.73660 	-0.92680 	-0.59980 
-0.20995 	-0.51790 	-1.06410 	-0.98780 	-0.81280 	-0.15800 	-1.42230 	-1.31210 	-0.71965 	-0.62040 	-1.93510 	-1.47585 	-0.94845 	-0.42640 	-2.34700 	-2.02250 	-1.11145 	-0.70755 	-2.34205 	-2.03960 	-1.20080 	-0.65710 	-1.52870 	-1.27585 	-0.76910 	-0.93375 	-0.57045 
-0.13940 	-0.45795 	-0.95720 	-0.89085 	-0.73245 	-0.11925 	-1.30960 	-1.20050 	-0.68525 	-0.57560 	-1.82920 	-1.38590 	-0.92685 	-0.37475 	-2.24430 	-1.94395 	-1.05880 	-0.79715 	-2.26645 	-1.97890 	-1.18970 	-0.67915 	-1.51815 	-1.29560 	-0.79575 	-0.92990 	-0.53455 
-0.06555 	-0.39715 	-0.84205 	-0.78700 	-0.64400 	-0.07735 	-1.18750 	-1.08065 	-0.64305 	-0.52130 	-1.71020 	-1.28750 	-0.89820 	-0.32755 	-2.12760 	-1.85445 	-1.00305 	-0.87815 	-2.17400 	-1.90310 	-1.17010 	-0.69370 	-1.49275 	-1.30350 	-0.81555 	-0.91560 	-0.49310 
0.01180 	-0.33220 	-0.71880 	-0.67620 	-0.54695 	-0.03275 	-1.05615 	-0.95270 	-0.59205 	-0.45895 	-1.57855 	-1.18040 	-0.86100 	-0.28395 	-1.99790 	-1.75470 	-0.94495 	-0.94630 	-2.06520 	-1.81255 	-1.14175 	-0.69930 	-1.45285 	-1.29935 	-0.82760 	-0.89105 	-0.44720 
0.09195 	-0.26035 	-0.58795 	-0.55890 	-0.44175 	0.01340 	-0.91630 	-0.81760 	-0.53210 	-0.39000 	-1.43540 	-1.06490 	-0.81430 	-0.24270 	-1.85655 	-1.64585 	-0.88540 	-0.99790 	-1.94120 	-1.70780 	-1.10485 	-0.69505 	-1.39935 	-1.28330 	-0.83150 	-0.85690 	-0.39760 
0.17360 	-0.18005 	-0.45125 	-0.43690 	-0.33055 	0.05975 	-0.76960 	-0.67720 	-0.46450 	-0.31670 	-1.28280 	-0.94200 	-0.75835 	-0.20200 	-1.70550 	-1.52955 	-0.82525 	-1.03070 	-1.80410 	-1.59060 	-1.06005 	-0.68025 	-1.33400 	-1.25630 	-0.82750 	-0.81425 	-0.34535 
0.25460 	-0.09100 	-0.31140 	-0.31310 	-0.21670 	0.10430 	-0.61860 	-0.53505 	-0.39210 	-0.24150 	-1.12375 	-0.81430 	-0.69435 	-0.16080 	-1.54765 	-1.40810 	-0.76585 	-1.04370 	-1.65665 	-1.46330 	-1.00895 	-0.65545 	-1.25960 	-1.21990 	-0.81675 	-0.76495 	-0.29150 
0.33200 	0.00530 	-0.17225 	-0.19165 	-0.10500 	0.14470 	-0.46700 	-0.39555 	-0.31915 	-0.16760 	-0.96220 	-0.68545 	-0.62450 	-0.11860 	-1.38665 	-1.28480 	-0.70885 	-1.03745 	-1.50255 	-1.32915 	-0.95380 	-0.62220 	-1.17950 	-1.17650 	-0.80110 	-0.71150 	-0.23755 
0.40235 	0.10580 	-0.03830 	-0.07720 	-0.00090 	0.17830 	-0.31910 	-0.26440 	-0.25060 	-0.09790 	-0.80270 	-0.56025 	-0.55180 	-0.07585 	-1.22660 	-1.16320 	-0.65625 	-1.01375 	-1.34585 	-1.19205 	-0.89740 	-0.58340 	-1.09770 	-1.12885 	-0.78290 	-0.65685 	-0.18525 
0.46190 	0.20645 	0.08590 	0.02545 	0.09055 	0.20225 	-0.17935 	-0.14675 	-0.19130 	-0.03550 	-0.64990 	-0.44375 	-0.47970 	-0.03380 	-1.07135 	-1.04680 	-0.61010 	-0.97520 	-1.19100 	-1.05595 	-0.84275 	-0.54275 	-1.01820 	-1.08010 	-0.76450 	-0.60420 	-0.13670 
0.50725 	0.30215 	0.19610 	0.11200 	0.16490 	0.21380 	-0.05210 	-0.04740 	-0.14540 	0.01690 	-0.50790 	-0.34045 	-0.41200 	0.00565 	-0.92470 	-0.93900 	-0.57220 	-0.92410 	-1.04160 	-0.92465 	-0.79240 	-0.50420 	-0.94480 	-1.03300 	-0.74805 	-0.55665 	-0.09405 
0.53535 	0.38775 	0.28865 	0.17905 	0.21875 	0.21115 	0.05930 	0.03010 	-0.11575 	0.05700 	-0.38015 	-0.25405 	-0.35240 	0.04090 	-0.78960 	-0.84230 	-0.54400 	-0.86250 	-0.90100 	-0.80140 	-0.74845 	-0.47150 	-0.88055 	-0.99020 	-0.73520 	-0.51700 	-0.05965 
0.54380 	0.45795 	0.36070 	0.22420 	0.25000 	0.19280 	0.15185 	0.08345 	-0.10365 	0.08230 	-0.26925 	-0.18730 	-0.30445 	0.07070 	-0.66815 	-0.75840 	-0.52620 	-0.79140 	-0.77175 	-0.68880 	-0.71215 	-0.44760 	-0.82780 	-0.95355 	-0.72690 	-0.48760 	-0.03540 
0.53120 	0.50795 	0.41030 	0.24590 	0.25735 	0.15795 	0.22385 	0.11175 	-0.10935 	0.09070 	-0.17685 	-0.14140 	-0.27070 	0.09435 	-0.56185 	-0.68825 	-0.51905 	-0.71095 	-0.65550 	-0.58865 	-0.68420 	-0.43420 	-0.78780 	-0.92445 	-0.72360 	-0.47005 	-0.02300 
0.49690 	0.53375 	0.43645 	0.24390 	0.24045 	0.10625 	0.27425 	0.11535 	-0.13230 	0.08035 	-0.10360 	-0.11670 	-0.25275 	0.11200 	-0.47125 	-0.63170 	-0.52205 	-0.62120 	-0.55315 	-0.50180 	-0.66430 	-0.43165 	-0.76110 	-0.90350 	-0.72525 	-0.46495 	-0.02310 
0.44135 	0.53270 	0.43920 	0.21870 	0.19975 	0.03820 	0.30290 	0.09565 	-0.17125 	0.05065 	-0.04940 	-0.11280 	-0.25105 	0.12440 	-0.39615 	-0.58835 	-0.53400 	-0.52255 	-0.46485 	-0.42830 	-0.65170 	-0.43920 	-0.74695 	-0.89060 	-0.73115 	-0.47195 	-0.03570 
0.36615 	0.50355 	0.41975 	0.17200 	0.13685 	-0.04475 	0.31075 	0.05495 	-0.22455 	0.00245 	-0.01305 	-0.12815 	-0.26455 	0.13260 	-0.33575 	-0.55675 	-0.55310 	-0.41620 	-0.38975 	-0.36725 	-0.64520 	-0.45500 	-0.74395 	-0.88505 	-0.74055 	-0.48975 	-0.05960 
0.27395 	0.44715 	0.38020 	0.10655 	0.05460 	-0.14010 	0.29945 	-0.00365 	-0.28985 	-0.06140 	0.00715 	-0.16100 	-0.29115 	0.13755 	-0.28845 	-0.53530 	-0.57710 	-0.30485 	-0.32655 	-0.31745 	-0.64325 	-0.47665 	-0.74980 	-0.88570 	-0.75245 	-0.51620 	-0.09295 
0.16820 	0.36575 	0.32375 	0.02595 	-0.04300 	-0.24410 	0.27170 	-0.07645 	-0.36425 	-0.13690 	0.01345 	-0.20900 	-0.32795 	0.13960 	-0.25230 	-0.52180 	-0.60330 	-0.19240 	-0.27350 	-0.27700 	-0.64420 	-0.50180 	-0.76205 	-0.89100 	-0.76605 	-0.54870 	-0.13355 
0.05285 	0.26330 	0.25425 	-0.06565 	-0.15130 	-0.35245 	0.23020 	-0.15960 	-0.44475 	-0.21955 	0.00860 	-0.26915 	-0.37170 	0.13770 	-0.22515 	-0.51415 	-0.62925 	-0.08400 	-0.22865 	-0.24395 	-0.64645 	-0.52830 	-0.77785 	-0.89955 	-0.78075 	-0.58460 	-0.17885 
-0.06795 	0.14475 	0.17575 	-0.16385 	-0.26535 	-0.46085 	0.17825 	-0.24920 	-0.52825 	-0.30505 	-0.00470 	-0.33845 	-0.41925 	0.12970 	-0.20475 	-0.50985 	-0.65255 	0.01435 	-0.18985 	-0.21640 	-0.64890 	-0.55485 	-0.79475 	-0.91010 	-0.79625 	-0.62165 	-0.22665 
-0.19055 	0.01570 	0.09230 	-0.26445 	-0.38050 	-0.56535 	0.11905 	-0.34150 	-0.61225 	-0.39035 	-0.02370 	-0.41355 	-0.46820 	0.11200 	-0.18905 	-0.50680 	-0.67140 	0.09635 	-0.15545 	-0.19265 	-0.65060 	-0.58085 	-0.81070 	-0.92155 	-0.81260 	-0.65760 	-0.27470 
-0.31170 	-0.11780 	0.00775 	-0.36390 	-0.49290 	-0.66285 	0.05555 	-0.43335 	-0.69455 	-0.47320 	-0.04590 	-0.49115 	-0.51730 	0.08060 	-0.17620 	-0.50310 	-0.68480 	0.15610 	-0.12385 	-0.17110 	-0.65085 	-0.60645 	-0.82410 	-0.93330 	-0.83005 	-0.69100 	-0.32120 
-0.42855 	-0.24975 	-0.07455 	-0.45870 	-0.59935 	-0.75100 	-0.00945 	-0.52160 	-0.77310 	-0.55185 	-0.06910 	-0.56825 	-0.56550 	0.03195 	-0.16445 	-0.49680 	-0.69220 	0.18875 	-0.09360 	-0.15020 	-0.64915 	-0.63180 	-0.83350 	-0.94430 	-0.84855 	-0.72055 	-0.36430 
-0.53870 	-0.37400 	-0.15150 	-0.54625 	-0.69720 	-0.82845 	-0.07335 	-0.60360 	-0.84560 	-0.62470 	-0.09110 	-0.64170 	-0.61215 	-0.03625 	-0.15220 	-0.48645 	-0.69330 	0.19155 	-0.06355 	-0.12860 	-0.64470 	-0.65745 	-0.83805 	-0.95380 	-0.86795 	-0.74500 	-0.40260 
-0.64005 	-0.48535 	-0.22040 	-0.62405 	-0.78465 	-0.89430 	-0.13365 	-0.67650 	-0.90985 	-0.68990 	-0.11010 	-0.70890 	-0.65615 	-0.12465 	-0.13800 	-0.47065 	-0.68825 	0.16375 	-0.03235 	-0.10495 	-0.63665 	-0.68360 	-0.83670 	-0.96070 	-0.88795 	-0.76355 	-0.43485 
-0.73115 	-0.57930 	-0.27925 	-0.69025 	-0.86040 	-0.94850 	-0.18820 	-0.73775 	-0.96375 	-0.74530 	-0.12445 	-0.76740 	-0.69580 	-0.23190 	-0.12045 	-0.44830 	-0.67725 	0.10685 	0.00100 	-0.07820 	-0.62420 	-0.71030 	-0.82900 	-0.96405 	-0.90775 	-0.77575 	-0.46055 
-0.81085 	-0.65285 	-0.32660 	-0.74365 	-0.92410 	-0.99115 	-0.23525 	-0.78525 	-1.00600 	-0.78885 	-0.13265 	-0.81510 	-0.72870 	-0.35485 	-0.09840 	-0.41880 	-0.66080 	0.02475 	0.03735 	-0.04760 	-0.60665 	-0.73730 	-0.81450 	-0.96300 	-0.92655 	-0.78130 	-0.47950 
-0.87890 	-0.70430 	-0.36165 	-0.78365 	-0.97595 	-1.02270 	-0.27345 	-0.81730 	-1.03615 	-0.81945 	-0.13375 	-0.85040 	-0.75220 	-0.48935 	-0.07095 	-0.38195 	-0.63945 	-0.07750 	0.07720 	-0.01275 	-0.58375 	-0.76420 	-0.79335 	-0.95670 	-0.94345 	-0.78015 	-0.49215 
-0.93530 	-0.73375 	-0.38455 	-0.81030 	-1.01665 	-1.04400 	-0.30205 	-0.83285 	-1.05465 	-0.83715 	-0.12695 	-0.87200 	-0.76390 	-0.63080 	-0.03765 	-0.33800 	-0.61425 	-0.19370 	0.12090 	0.02640 	-0.55540 	-0.79015 	-0.76575 	-0.94470 	-0.95745 	-0.77255 	-0.49900 
-0.98085 	-0.74290 	-0.39570 	-0.82410 	-1.04715 	-1.05645 	-0.32075 	-0.83155 	-1.06265 	-0.84340 	-0.11190 	-0.87920 	-0.76210 	-0.77475 	0.00175 	-0.28735 	-0.58605 	-0.31785 	0.16835 	0.06955 	-0.52210 	-0.81420 	-0.73210 	-0.92655 	-0.96770 	-0.75850 	-0.50040 
-1.01675 	-0.73490 	-0.39625 	-0.82605 	-1.06860 	-1.06155 	-0.32970 	-0.81385 	-1.06145 	-0.84110 	-0.08860 	-0.87170 	-0.74600 	-0.91710 	0.04700 	-0.23085 	-0.55585 	-0.44385 	0.21935 	0.11640 	-0.48430 	-0.83525 	-0.69300 	-0.90185 	-0.97315 	-0.73800 	-0.49660 
-1.04445 	-0.71395 	-0.38770 	-0.81730 	-1.08210 	-1.06115 	-0.32960 	-0.78065 	-1.05265 	-0.83355 	-0.05730 	-0.84955 	-0.71610 	-1.05380 	0.09795 	-0.16920 	-0.52415 	-0.56570 	0.27355 	0.16630 	-0.44260 	-0.85185 	-0.64860 	-0.87020 	-0.97295 	-0.71060 	-0.48755 
-1.06560 	-0.68500 	-0.37150 	-0.79940 	-1.08865 	-1.05690 	-0.32110 	-0.73330 	-1.03735 	-0.82405 	-0.01830 	-0.81350 	-0.67345 	-1.18040 	0.15400 	-0.10305 	-0.49095 	-0.67725 	0.33065 	0.21910 	-0.39745 	-0.86245 	-0.59895 	-0.83125 	-0.96595 	-0.67595 	-0.47310 
-1.08145 	-0.65275 	-0.34905 	-0.77345 	-1.08890 	-1.04950 	-0.30485 	-0.67315 	-1.01620 	-0.81525 	0.02800 	-0.76400 	-0.61980 	-1.29220 	0.21505 	-0.03260 	-0.45545 	-0.77215 	0.39050 	0.27490 	-0.34860 	-0.86510 	-0.54370 	-0.78435 	-0.95075 	-0.63315 	-0.45250 
-1.09295 	-0.62140 	-0.32115 	-0.74030 	-1.08295 	-1.03895 	-0.28135 	-0.60170 	-0.98895 	-0.80830 	0.08165 	-0.70215 	-0.55710 	-1.38405 	0.28100 	0.04230 	-0.41635 	-0.84385 	0.45350 	0.33410 	-0.29580 	-0.85785 	-0.48200 	-0.72850 	-0.92580 	-0.58135 	-0.42505 
-1.10005 	-0.59385 	-0.28825 	-0.70035 	-1.07025 	-1.02450 	-0.25055 	-0.51985 	-0.95475 	-0.80315 	0.14295 	-0.62850 	-0.48695 	-1.45090 	0.35210 	0.12210 	-0.37205 	-0.88670 	0.52005 	0.39735 	-0.23805 	-0.83855 	-0.41290 	-0.66285 	-0.88905 	-0.51960 	-0.38985 
-1.10230 	-0.57190 	-0.25005 	-0.65350 	-1.04950 	-1.00480 	-0.21210 	-0.42810 	-0.91220 	-0.79840 	0.21230 	-0.54370 	-0.41075 	-1.48835 	0.42865 	0.20740 	-0.32100 	-0.89615 	0.59070 	0.46545 	-0.17440 	-0.80510 	-0.33500 	-0.58620 	-0.83825 	-0.44705 	-0.34610 
-1.09820 	-0.55540 	-0.20570 	-0.59895 	-1.01910 	-0.97800 	-0.16515 	-0.32675 	-0.85965 	-0.79115 	0.29055 	-0.44845 	-0.32905 	-1.49280 	0.51115 	0.29880 	-0.26135 	-0.86975 	0.66640 	0.53945 	-0.10355 	-0.75530 	-0.24695 	-0.49740 	-0.77115 	-0.36295 	-0.29265 
-1.08565 	-0.54275 	-0.15385 	-0.53575 	-0.97690 	-0.94185 	-0.10860 	-0.21570 	-0.79510 	-0.77740 	0.37850 	-0.34335 	-0.24185 	-1.46225 	0.60020 	0.39695 	-0.19170 	-0.80715 	0.74825 	0.62030 	-0.02410 	-0.68730 	-0.14740 	-0.39530 	-0.68545 	-0.26635 	-0.22820 
-1.06195 	-0.53040 	-0.09250 	-0.46255 	-0.92070 	-0.89435 	-0.04095 	-0.09495 	-0.71685 	-0.75260 	0.47715 	-0.22910 	-0.14840 	-1.39630 	0.69670 	0.50255 	-0.11050 	-0.71060 	0.83745 	0.70950 	0.06555 	-0.59940 	-0.03470 	-0.27850 	-0.57910 	-0.15595 	-0.15100 
-1.02375 	-0.51385 	-0.01950 	-0.37775 	-0.84820 	-0.83350 	0.03960 	0.03570 	-0.62305 	-0.71200 	0.58760 	-0.10620 	-0.04725 	-1.29590 	0.80160 	0.61640 	-0.01615 	-0.58420 	0.93550 	0.80860 	0.16730 	-0.49025 	0.09300 	-0.14565 	-0.45045 	-0.03045 	-0.05900 
-0.96805 	-0.48750 	0.06740 	-0.27995 	-0.75695 	-0.75805 	0.13460 	0.17645 	-0.51180 	-0.65175 	0.71085 	0.02495 	0.06340 	-1.16320 	0.91610 	0.73940 	0.09275 	-0.43350 	1.04415 	0.91945 	0.28310 	-0.35925 	0.23715 	0.00465 	-0.29825 	0.11180 	0.04990 
-0.89200 	-0.44570 	0.17050 	-0.16750 	-0.64470 	-0.66675 	0.24580 	0.32755 	-0.38125 	-0.56895 	0.84795 	0.16485 	0.18595 	-1.00105 	1.04145 	0.87270 	0.21800 	-0.26500 	1.16525 	1.04395 	0.41485 	-0.20605 	0.39960 	0.17385 	-0.12145 	0.27275 	0.17790 
-0.79340 	-0.38295 	0.29160 	-0.03915 	-0.50960 	-0.55895 	0.37455 	0.48945 	-0.23000 	-0.46180 	0.99980 	0.31445 	0.32260 	-0.81225 	1.17925 	1.01795 	0.36170 	-0.08445 	1.30085 	1.18425 	0.56480 	-0.03075 	0.58180 	0.36340 	0.08065 	0.45430 	0.32715 
-0.67060 	-0.29430 	0.43220 	0.10635 	-0.35060 	-0.43390 	0.52210 	0.66245 	-0.05725 	-0.32945 	1.16760 	0.47540 	0.47535 	-0.59970 	1.33120 	1.17690 	0.52600 	0.10345 	1.45300 	1.34240 	0.73500 	0.16680 	0.78525 	0.57495 	0.30875 	0.65870 	0.49965 
-0.52280 	-0.17580 	0.59335 	0.26965 	-0.16770 	-0.29070 	0.68930 	0.84680 	0.13695 	-0.17155 	1.35225 	0.64955 	0.64510 	-0.36540 	1.49915 	1.35140 	0.71295 	0.29610 	1.62360 	1.52040 	0.92735 	0.38690 	1.01155 	0.81010 	0.56375 	0.88800 	0.69750 
-0.34975 	-0.02480 	0.77555 	0.45095 	0.03790 	-0.12835 	0.87650 	1.04215 	0.35185 	0.01210 	1.55440 	0.83840 	0.83215 	-0.11060 	1.68465 	1.54315 	0.92405 	0.49360 	1.81460 	1.71985 	1.14355 	0.63020 	1.26175 	1.07025 	0.84640 	1.14415 	0.92250 
-0.15190 	0.15970 	0.97810 	0.64950 	0.26380 	0.05395 	1.08340 	1.24740 	0.58560 	0.22160 	1.77415 	1.04255 	1.03585 	0.16460 	1.88875 	1.75330 	1.16010 	0.69820 	2.02700 	1.94175 	1.38465 	0.89780 	1.53660 	1.35640 	1.15700 	1.42850 	1.17600 
0.06950 	0.37680 	1.19970 	0.86400 	0.50650 	0.25670 	1.30885 	1.46065 	0.83570 	0.45735 	2.01085 	1.26135 	1.25480 	0.46120 	2.11160 	1.98190 	1.42065 	0.91385 	2.26110 	2.18600 	1.65075 	1.19065 	1.83585 	1.66895 	1.49555 	1.74140 	1.45870 
0.31295 	0.62410 	1.43815 	1.09200 	0.76195 	0.47995 	1.55095 	1.67945 	1.09935 	0.71930 	2.26300 	1.49330 	1.48755 	0.78125 	2.35255 	2.22820 	1.70450 	1.14530 	2.51620 	2.45165 	1.94125 	1.50945 	2.15860 	2.00740 	1.86125 	2.08235 	1.77050 
0.57590 	0.89745 	1.69070 	1.33100 	1.02615 	0.72305 	1.80740 	1.90105 	1.37315 	1.00705 	2.52835 	1.73550 	1.73225 	1.12690 	2.60990 	2.49030 	2.00915 	1.39635 	2.79045 	2.73655 	2.25455 	1.85420 	2.50290 	2.37035 	2.25245 	2.44925 	2.11015 
0.85530 	1.19115 	1.95360 	1.57755 	1.29465 	0.98425 	2.07470 	2.12225 	1.65315 	1.31885 	2.80370 	1.98445 	1.98675 	1.49910 	2.88070 	2.76525 	2.33105 	1.66905 	3.08065 	3.03720 	2.58770 	2.22300 	2.86540 	2.75495 	2.66615 	2.83880 	2.47490 
1.14635 	1.49770 	2.22220 	1.82750 	1.56270 	1.26035 	2.34850 	2.33925 	1.93480 	1.65125 	3.08420 	2.23510 	2.24780 	1.89615 	3.16035 	3.04835 	2.66515 	1.96230 	3.38165 	3.34825 	2.93600 	2.61210 	3.24115 	3.15635 	3.09735 	3.24540 	2.85980 
1.44255 	1.80765 	2.49020 	2.07525 	1.82470 	1.54625 	2.62260 	2.54705 	2.21215 	1.99850 	3.36350 	2.48105 	2.51035 	2.31285 	3.44220 	3.33295 	3.00430 	2.27135 	3.68625 	3.66255 	3.29260 	3.01450 	3.62285 	3.56735 	3.53865 	3.66090 	3.25740 
1.73495 	2.10950 	2.74945 	2.31320 	2.07315 	1.83405 	2.88855 	2.73880 	2.47755 	2.35210 	3.63280 	2.71375 	2.76705 	2.73955 	3.71715 	3.61010 	3.33895 	2.58715 	3.98455 	3.97000 	3.64775 	3.41990 	4.00030 	3.97750 	3.97935 	4.07395 	3.65640 
2.01175 	2.38940 	2.98890 	2.53130 	2.29855 	2.11300 	3.13540 	2.90550 	2.72125 	2.70015 	3.88065 	2.92255 	3.00765 	3.16205 	3.97290 	3.86790 	3.65640 	2.89635 	4.26325 	4.25755 	3.98830 	3.81415 	4.35980 	4.37260 	4.40505 	4.46970 	4.04185 
2.25830 	2.63130 	3.19515 	2.71685 	2.48860 	2.36920 	3.34925 	3.03535 	2.93085 	3.02705 	4.09260 	3.09430 	3.21930 	3.56165 	4.19410 	4.09120 	3.94090 	3.18140 	4.50615 	4.50890 	4.29770 	4.17930 	4.68430 	4.73490 	4.79735 	4.82945 	4.39475 
2.45785 	2.81760 	3.35210 	2.85480 	2.62900 	2.58590 	3.51360 	3.11435 	3.09185 	3.31430 	4.25190 	3.21365 	3.38645 	3.91575 	4.36265 	4.26245 	4.17395 	3.42145 	4.69385 	4.70500 	4.55625 	4.49420 	4.95345 	5.04350 	5.13470 	5.13135 	4.69285 
2.59200 	2.93025 	3.44260 	2.92865 	2.70410 	2.74490 	3.61090 	3.12720 	3.18850 	3.54115 	4.34030 	3.26435 	3.49225 	4.19940 	4.45900 	4.36260 	4.33550 	3.59360 	4.80570 	4.82520 	4.74250 	4.73575 	5.14525 	5.27530 	5.39335 	5.35205 	4.91215 
2.64350 	2.95295 	3.45020 	2.92280 	2.69925 	2.82875 	3.62430 	3.05950 	3.20585 	3.68770 	4.34050 	3.23120 	3.52035 	4.38750 	4.46415 	4.37325 	4.40640 	3.67580 	4.82175 	4.84955 	4.83555 	4.88105 	5.23815 	5.40790 	5.55020 	5.46855 	5.02940 
2.59840 	2.87400 	3.36245 	2.82555 	2.60350 	2.82340 	3.54095 	2.90070 	3.13265 	3.73735 	4.23920 	3.10270 	3.45805 	4.45820 	4.36305 	4.28000 	4.37135 	3.64925 	4.72580 	4.76215 	4.81810 	4.91070 	5.21425 	5.42245 	5.58560 	5.46195 	5.02550 
2.44965 	2.68925 	3.17385 	2.63225 	2.41285 	2.72135 	3.35515 	2.64750 	2.96420 	3.68035 	4.03030 	2.87455 	3.29895 	4.39685 	4.14810 	4.07535 	4.22250 	3.50265 	4.50920 	4.55415 	4.68030 	4.81240 	5.06295 	5.30740 	5.48745 	5.32065 	4.88835 
2.19950 	2.40470 	2.88885 	2.34795 	2.13300 	2.52410 	3.07120 	2.30650 	2.70510 	3.51615 	3.71785 	2.55265 	3.04640 	4.19890 	3.82175 	3.76225 	3.96235 	3.23455 	4.17375 	4.22730 	4.42250 	4.58380 	4.78390 	5.06140 	5.25400 	5.04350 	4.61630 
1.86070 	2.03710 	2.52260 	1.98855 	1.77985 	2.24330 	2.70460 	1.89535 	2.36995 	3.25465 	3.31715 	2.15360 	2.71405 	3.87235 	3.39785 	3.35510 	3.60510 	2.85505 	3.73255 	3.79495 	4.05695 	4.23465 	4.38840 	4.69510 	4.89585 	4.64140 	4.21945 
1.45545 	1.61260 	2.09990 	1.57930 	1.37835 	1.89950 	2.28030 	1.44140 	1.98195 	2.91465 	2.85350 	1.70405 	2.32520 	3.43655 	2.90105 	2.87850 	3.17550 	2.38445 	3.20965 	3.28110 	3.60705 	3.78585 	3.89875 	4.23065 	4.43525 	4.13655 	3.71930 
1.01245 	1.16320 	1.65160 	1.15130 	0.95850 	1.51930 	1.82965 	0.97775 	1.56940 	2.52100 	2.35875 	1.23710 	1.90905 	2.91975 	2.36265 	2.36440 	2.70570 	1.85065 	2.63660 	2.71740 	3.10410 	3.26675 	3.34530 	3.69840 	3.90340 	3.55955 	3.14570 
0.56235 	0.72210 	1.21000 	0.73685 	0.55120 	1.13095 	1.38580 	0.53880 	1.16160 	2.10100 	1.86645 	0.78735 	1.49665 	2.35460 	1.81675 	1.84715 	2.23060 	1.28490 	2.04770 	2.13830 	2.58285 	2.71095 	2.76215 	3.13265 	3.33575 	2.94530 	2.53310 
0.13340 	0.31860 	0.80415 	0.36465 	0.18350 	0.76050 	0.97830 	0.15495 	0.78450 	1.68010 	1.40735 	0.38565 	1.11610 	1.77395 	1.29465 	1.35845 	1.78255 	0.71730 	1.47540 	1.57625 	2.07645 	2.15150 	2.18175 	2.56685 	2.76710 	2.32775 	1.91545 
-0.25200 	-0.02525 	0.45625 	0.05640 	-0.12450 	0.42815 	0.63000 	-0.15110 	0.45745 	1.27875 	1.00535 	0.05605 	0.78910 	1.20700 	0.82170 	0.92365 	1.38765 	0.17370 	0.94610 	1.05795 	1.61240 	1.61700 	1.63175 	2.02940 	2.22740 	1.73635 	1.32260 
-0.57920 	-0.29640 	0.17985 	-0.17520 	-0.36145 	0.14700 	0.35490 	-0.36590 	0.19190 	0.91085 	0.67565 	-0.18700 	0.52905 	0.67660 	0.41445 	0.55970 	1.06345 	-0.32690 	0.47835 	0.60180 	1.21020 	1.12915 	1.13215 	1.54125 	1.73900 	1.19310 	0.77745 
-0.84110 	-0.49090 	-0.02025 	-0.32620 	-0.52395 	-0.07740 	0.15810 	-0.48555 	-0.00865 	0.58395 	0.42460 	-0.33835 	0.34095 	0.19865 	0.08110 	0.27450 	0.81850 	-0.77230 	0.08220 	0.21785 	0.88070 	0.70185 	0.69530 	1.11525 	1.31575 	0.71235 	0.29540 
-1.03725 	-0.61240 	-0.14640 	-0.40040 	-0.61585 	-0.24585 	0.03720 	-0.51435 	-0.14705 	0.29970 	0.25105 	-0.40090 	0.22250 	-0.21750 	-0.17785 	0.06850 	0.65355 	-1.15595 	-0.23990 	-0.09140 	0.62710 	0.34200 	0.32610 	0.75690 	0.96395 	0.30105 	-0.11530 
-1.17205 	-0.67005 	-0.20655 	-0.40695 	-0.64615 	-0.36365 	-0.01610 	-0.46300 	-0.23080 	0.05580 	0.14785 	-0.38390 	0.16600 	-0.56795 	-0.36770 	-0.06405 	0.56305 	-1.47605 	-0.49130 	-0.32930 	0.44630 	0.05035 	0.02415 	0.46580 	0.68360 	-0.03970 	-0.45275 
-1.25290 	-0.67660 	-0.21190 	-0.35870 	-0.62655 	-0.43925 	-0.01350 	-0.34605 	-0.26985 	-0.15270 	0.10395 	-0.30075 	0.16015 	-0.85275 	-0.49775 	-0.13295 	0.53715 	-1.73365 	-0.67935 	-0.50340 	0.33100 	-0.17670 	-0.21510 	0.23755 	0.47010 	-0.31290 	-0.71955 
-1.28895 	-0.64615 	-0.17555 	-0.26990 	-0.57010 	-0.48210 	0.03125 	-0.18050 	-0.27525 	-0.33205 	0.10610 	-0.16750 	0.19230 	-1.07440 	-0.57965 	-0.15060 	0.56330 	-1.93140 	-0.81410 	-0.62375 	0.27095 	-0.34575 	-0.39855 	0.06490 	0.31605 	-0.52485 	-0.92160 
-1.29000 	-0.59295 	-0.11085 	-0.15515 	-0.48975 	-0.50160 	0.10360 	0.01610 	-0.25745 	-0.48875 	0.13990 	-0.00130 	0.24950 	-1.23660 	-0.62600 	-0.13050 	0.62755 	-2.07290 	-0.90675 	-0.70165 	0.25465 	-0.46475 	-0.53435 	-0.06050 	0.21295 	-0.68330 	-1.06690 
-1.26570 	-0.53020 	-0.03075 	-0.02795 	-0.39715 	-0.50620 	0.19000 	0.22660 	-0.22605 	-0.62855 	0.19160 	0.18070 	0.31985 	-1.34405 	-0.64950 	-0.08645 	0.71580 	-2.16170 	-0.96865 	-0.74860 	0.27005 	-0.54200 	-0.63105 	-0.14735 	0.15170 	-0.79650 	-1.16390 
-1.22545 	-0.46940 	0.05310 	0.09965 	-0.30235 	-0.50230 	0.27780 	0.43570 	-0.18900 	-0.75595 	0.24825 	0.36250 	0.39315 	-1.40190 	-0.66190 	-0.03175 	0.81480 	-2.20125 	-1.01035 	-0.77550 	0.30600 	-0.58520 	-0.69670 	-0.20390 	0.12380 	-0.87260 	-1.22085 
-1.17730 	-0.41940 	0.13105 	0.21785 	-0.21310 	-0.49510 	0.35670 	0.63025 	-0.15235 	-0.87360 	0.29920 	0.53000 	0.46115 	-1.41555 	-0.67330 	0.02230 	0.91310 	-2.19455 	-1.04120 	-0.79180 	0.35220 	-0.60095 	-0.73855 	-0.23755 	0.12200 	-0.91890 	-1.24505 
-1.12840 	-0.38650 	0.19560 	0.31915 	-0.13505 	-0.48780 	0.41885 	0.79990 	-0.12000 	-0.98205 	0.33610 	0.67185 	0.51830 	-1.39055 	-0.69165 	0.06620 	1.00135 	-2.14405 	-1.06885 	-0.80525 	0.40045 	-0.59465 	-0.76270 	-0.25460 	0.14025 	-0.94150 	-1.24255 
-1.08405 	-0.37385 	0.24190 	0.39865 	-0.07175 	-0.48265 	0.45910 	0.93760 	-0.09390 	-1.08020 	0.35355 	0.78005 	0.56105 	-1.33210 	-0.72230 	0.09290 	1.07290 	-2.05245 	-1.09880 	-0.82150 	0.44395 	-0.57040 	-0.77420 	-0.26005 	0.17370 	-0.94545 	-1.21825 
-1.04800 	-0.38165 	0.26765 	0.45385 	-0.02470 	-0.48095 	0.47525 	1.03935 	-0.07450 	-1.16555 	0.34890 	0.84975 	0.58770 	-1.24560 	-0.76830 	0.09820 	1.12335 	-1.92280 	-1.13445 	-0.84410 	0.47835 	-0.53180 	-0.77680 	-0.25780 	0.21855 	-0.93470 	-1.17600 
-1.02230 	-0.40795 	0.27285 	0.48450 	0.00635 	-0.48345 	0.46760 	1.10405 	-0.06130 	-1.23550 	0.32215 	0.87960 	0.59780 	-1.13600 	-0.83000 	0.08030 	1.15075 	-1.75885 	-1.17750 	-0.87485 	0.50090 	-0.48185 	-0.77350 	-0.25085 	0.27175 	-0.91255 	-1.11930 
-1.00760 	-0.44860 	0.25970 	0.49230 	0.02340 	-0.49030 	0.43860 	1.13315 	-0.05305 	-1.28755 	0.27550 	0.87090 	0.59175 	-1.00825 	-0.90585 	0.03975 	1.15500 	-1.56495 	-1.22795 	-0.91375 	0.51050 	-0.42330 	-0.76650 	-0.24140 	0.33045 	-0.88165 	-1.05110 
-1.00320 	-0.49835 	0.23175 	0.48020 	0.02935 	-0.50135 	0.39245 	1.13010 	-0.04865 	-1.32070 	0.21275 	0.82770 	0.57075 	-0.86695 	-0.99285 	-0.02110 	1.13765 	-1.34565 	-1.28465 	-0.95970 	0.50740 	-0.35865 	-0.75750 	-0.23120 	0.39200 	-0.84455 	-0.97465 
-1.00765 	-0.55125 	0.19365 	0.45220 	0.02775 	-0.51600 	0.33410 	1.09980 	-0.04685 	-1.33525 	0.13870 	0.75550 	0.53635 	-0.71675 	-1.08675 	-0.09865 	1.10110 	-1.10510 	-1.34550 	-1.01080 	0.49250 	-0.29030 	-0.74810 	-0.22170 	0.45365 	-0.80355 	-0.89300 
-1.01875 	-0.60180 	0.15025 	0.41250 	0.02205 	-0.53355 	0.26910 	1.04765 	-0.04680 	-1.33275 	0.05880 	0.66095 	0.49045 	-0.56220 	-1.18325 	-0.18850 	1.04810 	-0.84770 	-1.40850 	-1.06510 	0.46710 	-0.22050 	-0.73990 	-0.21435 	0.51250 	-0.76115 	-0.80955 
-1.03425 	-0.64515 	0.10620 	0.36540 	0.01525 	-0.55340 	0.20275 	0.97930 	-0.04810 	-1.31565 	-0.02190 	0.55085 	0.43530 	-0.40850 	-1.27810 	-0.28640 	0.98125 	-0.57800 	-1.47175 	-1.12080 	0.43215 	-0.15135 	-0.73450 	-0.21060 	0.56560 	-0.72010 	-0.72770 
-1.05170 	-0.67795 	0.06550 	0.31435 	0.00950 	-0.57500 	0.13950 	0.89970 	-0.05075 	-1.28655 	-0.09920 	0.43145 	0.37290 	-0.26090 	-1.36790 	-0.38855 	0.90260 	-0.30135 	-1.53380 	-1.17665 	0.38825 	-0.08540 	-0.73390 	-0.21225 	0.61010 	-0.68335 	-0.65105 
-1.06890 	-0.69840 	0.03075 	0.26240 	0.00610 	-0.59790 	0.08270 	0.81280 	-0.05515 	-1.24815 	-0.17000 	0.30790 	0.30535 	-0.12495 	-1.45025 	-0.49200 	0.81365 	-0.02440 	-1.59385 	-1.23210 	0.33555 	-0.02535 	-0.73985 	-0.22100 	0.64330 	-0.65360 	-0.58295 
-1.08370 	-0.70640 	0.00380 	0.21150 	0.00550 	-0.62175 	0.03435 	0.72175 	-0.06185 	-1.20305 	-0.23230 	0.18415 	0.23435 	-0.00595 	-1.52360 	-0.59460 	0.71550 	0.24520 	-1.65160 	-1.28725 	0.27405 	0.02575 	-0.75415 	-0.23840 	0.66300 	-0.63355 	-0.52645 
-1.09440 	-0.70320 	-0.01475 	0.16300 	0.00740 	-0.64620 	-0.00465 	0.62860 	-0.07175 	-1.15365 	-0.28560 	0.06270 	0.16125 	0.09145 	-1.58760 	-0.69510 	0.60910 	0.49890 	-1.70730 	-1.34250 	0.20360 	0.06480 	-0.77810 	-0.26600 	0.66745 	-0.62545 	-0.48395 
-1.09970 	-0.69120 	-0.02515 	0.11760 	0.01105 	-0.67105 	-0.03450 	0.53470 	-0.08575 	-1.10285 	-0.33015 	-0.05480 	0.08645 	0.16385 	-1.64265 	-0.79270 	0.49530 	0.72790 	-1.76130 	-1.39870 	0.12425 	0.08865 	-0.81255 	-0.30490 	0.65570 	-0.63080 	-0.45720 
-1.09845 	-0.67330 	-0.02825 	0.07565 	0.01540 	-0.69610 	-0.05625 	0.44080 	-0.10475 	-1.05320 	-0.36720 	-0.16770 	0.00980 	0.20885 	-1.68970 	-0.88730 	0.37515 	0.92365 	-1.81405 	-1.45650 	0.03660 	0.09515 	-0.85780 	-0.35550 	0.62730 	-0.65065 	-0.44715 
-1.09000 	-0.65250 	-0.02510 	0.03720 	0.01915 	-0.72125 	-0.07140 	0.34705 	-0.12925 	-1.00730 	-0.39845 	-0.27595 	-0.06980 	0.22585 	-1.73015 	-0.97870 	0.24965 	1.07915 	-1.86600 	-1.51650 	-0.05875 	0.08290 	-0.91350 	-0.41780 	0.58250 	-0.68505 	-0.45400 
-1.07380 	-0.63160 	-0.01720 	0.00215 	0.02090 	-0.74615 	-0.08170 	0.25350 	-0.15940 	-0.96735 	-0.42605 	-0.38000 	-0.15370 	0.21530 	-1.76580 	-1.06730 	0.12000 	1.18920 	-1.91775 	-1.57915 	-0.16075 	0.05180 	-0.97880 	-0.49130 	0.52215 	-0.73355 	-0.47725 
-1.04960 	-0.61285 	-0.00595 	-0.03005 	0.01925 	-0.77030 	-0.08950 	0.15960 	-0.19485 	-0.93480 	-0.45240 	-0.48075 	-0.24350 	0.17870 	-1.79860 	-1.15355 	-0.01305 	1.25100 	-1.96990 	-1.64495 	-0.26850 	0.00290 	-1.05270 	-0.57520 	0.44740 	-0.79515 	-0.51590 
-1.01740 	-0.59800 	0.00680 	-0.06030 	0.01265 	-0.79285 	-0.09725 	0.06425 	-0.23520 	-0.91075 	-0.48015 	-0.57990 	-0.34095 	0.11820 	-1.83090 	-1.23850 	-0.14900 	1.26470 	-2.02345 	-1.71450 	-0.38120 	-0.06195 	-1.13395 	-0.66860 	0.35945 	-0.86850 	-0.56870 
-0.97785 	-0.58825 	0.01890 	-0.08985 	-0.00060 	-0.81370 	-0.10790 	-0.03385 	-0.27995 	-0.89585 	-0.51225 	-0.67945 	-0.44800 	0.03615 	-1.86525 	-1.32385 	-0.28810 	1.23275 	-2.07945 	-1.78865 	-0.49850 	-0.14025 	-1.22175 	-0.77070 	0.25950 	-0.95220 	-0.63430 
-0.93185 	-0.58390 	0.02830 	-0.12030 	-0.02200 	-0.83280 	-0.12430 	-0.13610 	-0.32850 	-0.89060 	-0.55155 	-0.78180 	-0.56580 	-0.06465 	-1.90425 	-1.41135 	-0.43095 	1.16030 	-2.13935 	-1.86830 	-0.62030 	-0.22930 	-1.31515 	-0.88075 	0.14865 	-1.04480 	-0.71130 
-0.88045 	-0.58445 	0.03315 	-0.15280 	-0.05285 	-0.85075 	-0.14890 	-0.24325 	-0.38020 	-0.89530 	-0.60035 	-0.88865 	-0.69515 	-0.18090 	-1.94995 	-1.50250 	-0.57805 	1.05495 	-2.20405 	-1.95385 	-0.74650 	-0.32610 	-1.41340 	-0.99790 	0.02825 	-1.14465 	-0.79825 
-0.82480 	-0.58835 	0.03235 	-0.18810 	-0.09340 	-0.86845 	-0.18310 	-0.35515 	-0.43410 	-0.90960 	-0.66010 	-1.00095 	-0.83580 	-0.30860 	-2.00375 	-1.59840 	-0.72970 	0.92585 	-2.27395 	-2.04525 	-0.87665 	-0.42750 	-1.51535 	-1.12080 	-0.09990 	-1.24985 	-0.89345 
-0.76560 	-0.59305 	0.02570 	-0.22585 	-0.14295 	-0.88610 	-0.22730 	-0.47040 	-0.48885 	-0.93225 	-0.73115 	-1.11845 	-0.98635 	-0.44295 	-2.06570 	-1.69900 	-0.88520 	0.78350 	-2.34855 	-2.14160 	-1.00940 	-0.52985 	-1.61935 	-1.24755 	-0.23355 	-1.35830 	-0.99495 
-0.70375 	-0.59550 	0.01370 	-0.26510 	-0.19975 	-0.90395 	-0.28080 	-0.58700 	-0.54285 	-0.96145 	-0.81260 	-1.23995 	-1.14435 	-0.57900 	-2.13505 	-1.80375 	-1.04285 	0.63805 	-2.42660 	-2.24125 	-1.14305 	-0.62955 	-1.72355 	-1.37575 	-0.36975 	-1.46735 	-1.10040 
-0.64025 	-0.59260 	-0.00290 	-0.30450 	-0.26165 	-0.92140 	-0.34225 	-0.70230 	-0.59410 	-0.99450 	-0.90320 	-1.36385 	-1.30665 	-0.71190 	-2.21015 	-1.91105 	-1.20060 	0.49870 	-2.50630 	-2.34215 	-1.27525 	-0.72300 	-1.82580 	-1.50265 	-0.50560 	-1.57460 	-1.20710 
-0.57630 	-0.58195 	-0.02310 	-0.34275 	-0.32600 	-0.93795 	-0.41000 	-0.81385 	-0.64095 	-1.02855 	-1.00100 	-1.48825 	-1.46970 	-0.83805 	-2.28895 	-2.01935 	-1.35585 	0.37260 	-2.58565 	-2.44205 	-1.40375 	-0.80720 	-1.92415 	-1.62560 	-0.63830 	-1.67750 	-1.31250 
-0.51350 	-0.56220 	-0.04650 	-0.37890 	-0.39045 	-0.95340 	-0.48265 	-0.91950 	-0.68230 	-1.06095 	-1.10425 	-1.61145 	-1.62935 	-0.95455 	-2.36960 	-2.12695 	-1.50605 	0.26460 	-2.66260 	-2.53875 	-1.52630 	-0.87990 	-2.01670 	-1.74220 	-0.76545 	-1.77395 	-1.41415 
-0.45410 	-0.53365 	-0.07310 	-0.41280 	-0.45280 	-0.96815 	-0.55910 	-1.01790 	-0.71785 	-1.08990 	-1.21135 	-1.73195 	-1.78180 	-1.06025 	-2.45020 	-2.23235 	-1.64905 	0.17675 	-2.73560 	-2.63055 	-1.64135 	-0.93965 	-2.10225 	-1.85060 	-0.88515 	-1.86230 	-1.50975 
-0.40090 	-0.49810 	-0.10380 	-0.44515 	-0.51170 	-0.98325 	-0.63900 	-1.10845 	-0.74870 	-1.11460 	-1.32150 	-1.84870 	-1.92345 	-1.15495 	-2.52950 	-2.33450 	-1.78290 	0.10915 	-2.80340 	-2.71640 	-1.74780 	-0.98610 	-2.18005 	-1.94955 	-0.99645 	-1.94155 	-1.59745 
-0.35685 	-0.45915 	-0.14025 	-0.47765 	-0.56675 	-1.00015 	-0.72280 	-1.19165 	-0.77735 	-1.13550 	-1.43405 	-1.96120 	-2.05165 	-1.23960 	-2.60670 	-2.43260 	-1.90610 	0.06005 	-2.86555 	-2.79540 	-1.84495 	-1.01985 	-2.24980 	-2.03840 	-1.09855 	-2.01100 	-1.67575 
-0.32475 	-0.42150 	-0.18455 	-0.51250 	-0.61845 	-1.02025 	-0.81150 	-1.26880 	-0.80715 	-1.15390 	-1.54915 	-2.06915 	-2.16490 	-1.31495 	-2.68125 	-2.52615 	-2.01760 	0.02715 	-2.92175 	-2.86740 	-1.93260 	-1.04195 	-2.31160 	-2.11680 	-1.19130 	-2.07045 	-1.74345 
-0.30700 	-0.39035 	-0.23915 	-0.55235 	-0.66755 	-1.04440 	-0.90670 	-1.34205 	-0.84195 	-1.17130 	-1.66715 	-2.17295 	-2.26295 	-1.38150 	-2.75320 	-2.61495 	-2.11665 	0.00790 	-2.97225 	-2.93225 	-2.01055 	-1.05410 	-2.36560 	-2.18505 	-1.27485 	-2.11970 	-1.79995 
-0.30495 	-0.37115 	-0.30640 	-0.60000 	-0.71545 	-1.07280 	-1.01015 	-1.41400 	-0.88530 	-1.18950 	-1.78885 	-2.27340 	-2.34715 	-1.43870 	-2.82285 	-2.69910 	-2.20325 	-0.00035 	-3.01750 	-2.99025 	-2.07900 	-1.05840 	-2.41205 	-2.24330 	-1.34930 	-2.15895 	-1.84485 
-0.31945 	-0.36915 	-0.38870 	-0.65820 	-0.76345 	-1.10525 	-1.12360 	-1.48785 	-0.94010 	-1.21000 	-1.91520 	-2.37165 	-2.41990 	-1.48595 	-2.89065 	-2.77905 	-2.27780 	-0.00030 	-3.05815 	-3.04180 	-2.13850 	-1.05695 	-2.45105 	-2.29205 	-1.41505 	-2.18830 	-1.87800 
-0.35015 	-0.38880 	-0.48790 	-0.72935 	-0.81320 	-1.14110 	-1.24905 	-1.56670 	-1.00860 	-1.23365 	-2.04735 	-2.46940 	-2.48435 	-1.52235 	-2.95755 	-2.85565 	-2.34135 	0.00510 	-3.09505 	-3.08745 	-2.18965 	-1.05205 	-2.48300 	-2.33200 	-1.47225 	-2.20800 	-1.89960 
-0.39640 	-0.43345 	-0.60560 	-0.81570 	-0.86640 	-1.17980 	-1.38795 	-1.65380 	-1.09210 	-1.26100 	-2.18640 	-2.56830 	-2.54360 	-1.54805 	-3.02430 	-2.92980 	-2.39490 	0.01265 	-3.12890 	-3.12780 	-2.23330 	-1.04590 	-2.50790 	-2.36360 	-1.52135 	-2.21860 	-1.91000 
-0.45680 	-0.50535 	-0.74245 	-0.91895 	-0.92515 	-1.22080 	-1.54150 	-1.75185 	-1.19150 	-1.29205 	-2.33300 	-2.67005 	-2.60065 	-1.56400 	-3.09180 	-3.00245 	-2.43970 	0.01920 	-3.16030 	-3.16355 	-2.27015 	-1.04025 	-2.52590 	-2.38745 	-1.56275 	-2.22050 	-1.90990 
-0.53005 	-0.60505 	-0.89865 	-1.04050 	-0.99215 	-1.26380 	-1.71020 	-1.86325 	-1.30700 	-1.32710 	-2.48745 	-2.77585 	-2.65795 	-1.57225 	-3.16040 	-3.07425 	-2.47645 	0.02175 	-3.18960 	-3.19485 	-2.30080 	-1.03655 	-2.53700 	-2.40405 	-1.59690 	-2.21450 	-1.90030 
-0.61450 	-0.73200 	-1.07375 	-1.18160 	-1.07035 	-1.30910 	-1.89435 	-1.98975 	-1.43875 	-1.36630 	-2.64965 	-2.88670 	-2.71750 	-1.57595 	-3.23040 	-3.14530 	-2.50595 	0.01775 	-3.21700 	-3.22205 	-2.32580 	-1.03585 	-2.54125 	-2.41370 	-1.62440 	-2.20135 	-1.88235 
-0.70875 	-0.88400 	-1.26670 	-1.34280 	-1.16270 	-1.35735 	-2.09355 	-2.13245 	-1.58650 	-1.41045 	-2.81890 	-3.00315 	-2.78070 	-1.57895 	-3.30170 	-3.21565 	-2.52915 	0.00535 	-3.24265 	-3.24525 	-2.34565 	-1.03885 	-2.53885 	-2.41715 	-1.64615 	-2.18210 	-1.85760 
-0.81150 	-1.05775 	-1.47605 	-1.52410 	-1.27190 	-1.40955 	-2.30710 	-2.29160 	-1.74965 	-1.46020 	-2.99440 	-3.12560 	-2.84845 	-1.58505 	-3.37420 	-3.28525 	-2.54725 	-0.01680 	-3.26665 	-3.26450 	-2.36095 	-1.04610 	-2.53020 	-2.41495 	-1.66315 	-2.15790 	-1.82780 
-0.92160 	-1.24895 	-1.70000 	-1.72515 	-1.39990 	-1.46700 	-2.53395 	-2.46700 	-1.92715 	-1.51635 	-3.17515 	-3.25450 	-2.92130 	-1.59760 	-3.44770 	-3.35435 	-2.56210 	-0.04910 	-3.28925 	-3.28020 	-2.37270 	-1.05795 	-2.51610 	-2.40810 	-1.67655 	-2.13005 	-1.79475 
-1.03795 	-1.45270 	-1.93650 	-1.94465 	-1.54790 	-1.53075 	-2.77270 	-2.65750 	-2.11735 	-1.57940 	-3.36025 	-3.39045 	-2.99935 	-1.61920 	-3.52225 	-3.42350 	-2.57635 	-0.09130 	-3.31110 	-3.29300 	-2.38215 	-1.07465 	-2.49760 	-2.39780 	-1.68745 	-2.09985 	-1.76040 
-1.15970 	-1.66390 	-2.18330 	-2.18090 	-1.71590 	-1.60160 	-3.02185 	-2.86185 	-2.31840 	-1.64975 	-3.54890 	-3.53415 	-3.08245 	-1.65180 	-3.59785 	-3.49375 	-2.59265 	-0.14240 	-3.33290 	-3.30385 	-2.39080 	-1.09615 	-2.47615 	-2.38505 	-1.69680 	-2.06890 	-1.72660 
-1.28590 	-1.87765 	-2.43815 	-2.43170 	-1.90335 	-1.68045 	-3.27965 	-3.07810 	-2.52855 	-1.72790 	-3.74035 	-3.68615 	-3.17060 	-1.69645 	-3.67485 	-3.56625 	-2.61415 	-0.20105 	-3.35560 	-3.31385 	-2.40020 	-1.12235 	-2.45330 	-2.37115 	-1.70550 	-2.03830 	-1.69495 
-1.41580 	-2.08920 	-2.69875 	-2.69435 	-2.10870 	-1.76800 	-3.54405 	-3.30395 	-2.74550 	-1.81440 	-3.93375 	-3.84660 	-3.26350 	-1.75345 	-3.75330 	-3.64210 	-2.64310 	-0.26590 	-3.38010 	-3.32420 	-2.41160 	-1.15280 	-2.43045 	-2.35700 	-1.71415 	-2.00920 	-1.66680 
-1.54835 	-2.29485 	-2.96275 	-2.96565 	-2.32935 	-1.86510 	-3.81295 	-3.53680 	-2.96700 	-1.90960 	-4.12815 	-4.01485 	-3.36080 	-1.82260 	-3.83315 	-3.72185 	-2.68080 	-0.33565 	-3.40685 	-3.33570 	-2.42590 	-1.18700 	-2.40910 	-2.34325 	-1.72325 	-1.98225 	-1.64300 
-1.68260 	-2.49155 	-3.22760 	-3.24190 	-2.56205 	-1.97235 	-4.08360 	-3.77320 	-3.19040 	-2.01360 	-4.32190 	-4.18920 	-3.46180 	-1.90305 	-3.91395 	-3.80535 	-2.72725 	-0.40920 	-3.43610 	-3.34890 	-2.44320 	-1.22440 	-2.39000 	-2.33020 	-1.73320 	-1.95785 	-1.62420 
-1.81720 	-2.67710 	-3.49085 	-3.51910 	-2.80270 	-2.09050 	-4.35330 	-4.00965 	-3.41300 	-2.12565 	-4.51320 	-4.36670 	-3.56550 	-1.99360 	-3.99475 	-3.89145 	-2.78110 	-0.48585 	-3.46735 	-3.36355 	-2.46315 	-1.26455 	-2.37375 	-2.31775 	-1.74415 	-1.93580 	-1.61035 
-1.95055 	-2.85025 	-3.74980 	-3.79300 	-3.04695 	-2.21955 	-4.61885 	-4.24205 	-3.63185 	-2.24450 	-4.69980 	-4.54385 	-3.67055 	-2.09280 	-4.07430 	-3.97835 	-2.84005 	-0.56550 	-3.49995 	-3.37925 	-2.48490 	-1.30715 	-2.36035 	-2.30550 	-1.75595 	-1.91555 	-1.60070 
-2.08100 	-3.01045 	-4.00175 	-4.05940 	-3.29015 	-2.35860 	-4.87705 	-4.46635 	-3.84425 	-2.36815 	-4.87910 	-4.71650 	-3.77525 	-2.19870 	-4.15085 	-4.06370 	-2.90130 	-0.64830 	-3.53250 	-3.39490 	-2.50730 	-1.35175 	-2.34905 	-2.29260 	-1.76825 	-1.89585 	-1.59375 
-2.20660 	-3.15775 	-4.24385 	-4.31400 	-3.52770 	-2.50590 	-5.12450 	-4.67860 	-4.04730 	-2.49370 	-5.04830 	-4.88075 	-3.87770 	-2.30925 	-4.22245 	-4.14485 	-2.96210 	-0.73460 	-3.56330 	-3.40915 	-2.52910 	-1.39810 	-2.33880 	-2.27800 	-1.78030 	-1.87500 	-1.58730 
-2.32540 	-3.29275 	-4.47330 	-4.55295 	-3.75535 	-2.65845 	-5.35790 	-4.87520 	-4.23830 	-2.61835 	-5.20480 	-5.03295 	-3.97575 	-2.42220 	-4.28705 	-4.21940 	-3.01980 	-0.82460 	-3.59075 	-3.42065 	-2.54920 	-1.44590 	-2.32800 	-2.26050 	-1.79095 	-1.85110 	-1.57890 
-2.43550 	-3.41630 	-4.68735 	-4.77290 	-3.96910 	-2.81275 	-5.57410 	-5.05330 	-4.41480 	-2.73920 	-5.34605 	-5.17025 	-4.06700 	-2.53485 	-4.34285 	-4.28520 	-3.07255 	-0.91830 	-3.61305 	-3.42805 	-2.56650 	-1.49445 	-2.31495 	-2.23900 	-1.79925 	-1.82235 	-1.56600 
-2.53500 	-3.52935 	-4.88365 	-4.97125 	-4.16595 	-2.96505 	-5.77055 	-5.21075 	-4.57455 	-2.85390 	-5.47000 	-5.29060 	-4.14945 	-2.64455 	-4.38810 	-4.34070 	-3.11925 	-1.01545 	-3.62870 	-3.43035 	-2.58045 	-1.54305 	-2.29805 	-2.21265 	-1.80415 	-1.78715 	-1.54675 
-2.62215 	-3.63270 	-5.06005 	-5.14595 	-4.34320 	-3.11145 	-5.94510 	-5.34650 	-4.71570 	-2.96075 	-5.57500 	-5.39275 	-4.22125 	-2.74860 	-4.42170 	-4.38485 	-3.15940 	-1.11550 	-3.63655 	-3.42680 	-2.59070 	-1.59095 	-2.27595 	-2.18075 	-1.80495 	-1.74430 	-1.51970 
-2.69505 	-3.72655 	-5.21475 	-5.29555 	-4.49870 	-3.24860 	-6.09605 	-5.46005 	-4.83670 	-3.05835 	-5.66000 	-5.47660 	-4.28120 	-2.84405 	-4.44275 	-4.41715 	-3.19335 	-1.21745 	-3.63560 	-3.41685 	-2.59695 	-1.63710 	-2.24720 	-2.14290 	-1.80085 	-1.69310 	-1.48385 
-2.75190 	-3.81070 	-5.34640 	-5.41925 	-4.63090 	-3.37335 	-6.22245 	-5.55205 	-4.93645 	-3.14575 	-5.72420 	-5.54250 	-4.32885 	-2.92860 	-4.45065 	-4.43760 	-3.22165 	-1.32005 	-3.62505 	-3.40000 	-2.59910 	-1.68050 	-2.21055 	-2.09860 	-1.79100 	-1.63315 	-1.43845 
-2.79105 	-3.88400 	-5.45395 	-5.51675 	-4.73900 	-3.48305 	-6.32400 	-5.62340 	-5.01460 	-3.22215 	-5.76740 	-5.59155 	-4.36470 	-3.00045 	-4.44510 	-4.44650 	-3.24555 	-1.42160 	-3.60435 	-3.37595 	-2.59690 	-1.72025 	-2.16500 	-2.04740 	-1.77455 	-1.56405 	-1.38270 
-2.81135 	-3.94520 	-5.53695 	-5.58845 	-4.82300 	-3.57585 	-6.40085 	-5.67585 	-5.07115 	-3.28695 	-5.78985 	-5.62540 	-4.38985 	-3.05860 	-4.42595 	-4.44445 	-3.26620 	-1.52015 	-3.57325 	-3.34445 	-2.59005 	-1.75550 	-2.10970 	-1.98920 	-1.75065 	-1.48615 	-1.31610 
-2.81230 	-3.99275 	-5.59575 	-5.63580 	-4.88400 	-3.65085 	-6.45390 	-5.71135 	-5.10710 	-3.34030 	-5.79200 	-5.64560 	-4.40600 	-3.10335 	-4.39365 	-4.43240 	-3.28495 	-1.61345 	-3.53170 	-3.30575 	-2.57860 	-1.78555 	-2.04450 	-1.92395 	-1.71860 	-1.39990 	-1.23840 
-2.79420 	-4.02515 	-5.63140 	-5.66065 	-4.92405 	-3.70785 	-6.48455 	-5.73225 	-5.12410 	-3.38285 	-5.77500 	-5.65410 	-4.41550 	-3.13605 	-4.34880 	-4.41120 	-3.30270 	-1.69950 	-3.48030 	-3.26010 	-2.56255 	-1.80985 	-1.96975 	-1.85230 	-1.67840 	-1.30630 	-1.15015 
-2.75845 	-4.04120 	-5.64570 	-5.66575 	-4.94600 	-3.74765 	-6.49490 	-5.74105 	-5.12460 	-3.41610 	-5.74025 	-5.65275 	-4.42070 	-3.15905 	-4.29245 	-4.38225 	-3.32050 	-1.77670 	-3.42000 	-3.20840 	-2.54255 	-1.82810 	-1.88670 	-1.77535 	-1.63060 	-1.20705 	-1.05255 
-2.70725 	-4.04025 	-5.64115 	-5.65440 	-4.95350 	-3.77185 	-6.48730 	-5.74030 	-5.11180 	-3.44210 	-5.68965 	-5.64365 	-4.42415 	-3.17580 	-4.22590 	-4.34700 	-3.33900 	-1.84520 	-3.35205 	-3.15210 	-2.51950 	-1.84030 	-1.79705 	-1.69475 	-1.57650 	-1.10405 	-0.94735 
-2.64360 	-4.02235 	-5.62075 	-5.63035 	-4.95110 	-3.78250 	-6.46450 	-5.73265 	-5.08950 	-3.46325 	-5.62530 	-5.62900 	-4.42875 	-3.19040 	-4.15095 	-4.30700 	-3.35910 	-1.90670 	-3.27825 	-3.09270 	-2.49470 	-1.84705 	-1.70330 	-1.61250 	-1.51810 	-0.99955 	-0.83685 
-2.57090 	-3.98805 	-5.58775 	-5.59755 	-4.94365 	-3.78180 	-6.42925 	-5.72090 	-5.06165 	-3.48205 	-5.54965 	-5.61150 	-4.43685 	-3.20765 	-4.06940 	-4.26380 	-3.38150 	-1.96535 	-3.20045 	-3.03205 	-2.46990 	-1.84965 	-1.60800 	-1.53085 	-1.45775 	-0.89570 	-0.72345 
-2.49285 	-3.93885 	-5.54565 	-5.55975 	-4.93620 	-3.77220 	-6.38450 	-5.70760 	-5.03220 	-3.50145 	-5.46520 	-5.59350 	-4.45045 	-3.23220 	-3.98320 	-4.21900 	-3.40675 	-2.02680 	-3.12060 	-2.97210 	-2.44705 	-1.85040 	-1.51415 	-1.45205 	-1.39810 	-0.79470 	-0.60965 
-2.41300 	-3.87695 	-5.49760 	-5.52030 	-4.93315 	-3.75625 	-6.33265 	-5.69460 	-5.00450 	-3.52460 	-5.37410 	-5.57695 	-4.47115 	-3.26875 	-3.89425 	-4.17405 	-3.43555 	-2.09795 	-3.04065 	-2.91465 	-2.42825 	-1.85240 	-1.42445 	-1.37845 	-1.34225 	-0.69855 	-0.49775 
-2.33465 	-3.80505 	-5.44660 	-5.48200 	-4.93795 	-3.73705 	-6.27570 	-5.68295 	-4.98150 	-3.55480 	-5.27835 	-5.56310 	-4.49995 	-3.32135 	-3.80405 	-4.12980 	-3.46825 	-2.18595 	-2.96230 	-2.86130 	-2.41545 	-1.85930 	-1.34165 	-1.31215 	-1.29285 	-0.60905 	-0.38995 
-2.26090 	-3.72635 	-5.39480 	-5.44635 	-4.95275 	-3.71800 	-6.21510 	-5.67285 	-4.96520 	-3.59550 	-5.17920 	-5.55180 	-4.53740 	-3.39300 	-3.71370 	-4.08675 	-3.50535 	-2.29710 	-2.88685 	-2.81310 	-2.41045 	-1.87485 	-1.26805 	-1.25495 	-1.25255 	-0.52770 	-0.28805 
-2.19385 	-3.64445 	-5.34390 	-5.41420 	-4.97850 	-3.70265 	-6.15140 	-5.66325 	-4.95700 	-3.64915 	-5.07720 	-5.54210 	-4.58345 	-3.48500 	-3.62370 	-4.04475 	-3.54680 	-2.43605 	-2.81530 	-2.77065 	-2.41425 	-1.90230 	-1.20535 	-1.20810 	-1.22320 	-0.45565 	-0.19345 
-2.13510 	-3.56280 	-5.29475 	-5.38535 	-5.01450 	-3.69410 	-6.08445 	-5.65260 	-4.95730 	-3.71705 	-4.97205 	-5.53155 	-4.63795 	-3.59675 	-3.53370 	-4.00285 	-3.59210 	-2.60495 	-2.74755 	-2.73370 	-2.42710 	-1.94355 	-1.15415 	-1.17185 	-1.20545 	-0.39320 	-0.10690 
-2.08520 	-3.48455 	-5.24730 	-5.35880 	-5.05905 	-3.69440 	-6.01335 	-5.63815 	-4.96565 	-3.79860 	-4.86280 	-5.51700 	-4.69975 	-3.72525 	-3.44280 	-3.95950 	-3.63980 	-2.80290 	-2.68300 	-2.70125 	-2.44795 	-1.99905 	-1.11410 	-1.14535 	-1.19895 	-0.34000 	-0.02845 
-2.04370 	-3.41220 	-5.20060 	-5.33265 	-5.10915 	-3.70430 	-5.93645 	-5.61705 	-4.98080 	-3.89115 	-4.74775 	-5.49470 	-4.76730 	-3.86620 	-3.34915 	-3.91235 	-3.68775 	-3.02595 	-2.61995 	-2.67115 	-2.47470 	-2.06745 	-1.08360 	-1.12685 	-1.20205 	-0.29480 	0.04270 
-2.00935 	-3.34755 	-5.15310 	-5.30480 	-5.16095 	-3.72300 	-5.85175 	-5.58605 	-5.00105 	-3.99035 	-4.62460 	-5.46070 	-4.83830 	-4.01405 	-3.25050 	-3.85855 	-3.73325 	-3.26815 	-2.55610 	-2.64090 	-2.50405 	-2.14620 	-1.06005 	-1.11345 	-1.21195 	-0.25570 	0.10790 
-1.98050 	-3.29145 	-5.10275 	-5.27280 	-5.21040 	-3.74840 	-5.75675 	-5.54255 	-5.02410 	-4.09025 	-4.49105 	-5.41130 	-4.90970 	-4.16320 	-3.14430 	-3.79505 	-3.77305 	-3.52175 	-2.48880 	-2.60715 	-2.53205 	-2.23220 	-1.04020 	-1.10185 	-1.22530 	-0.22050 	0.16895 
-1.95510 	-3.24400 	-5.04705 	-5.23460 	-5.25340 	-3.77750 	-5.64940 	-5.48445 	-5.04770 	-4.18440 	-4.34485 	-5.34360 	-4.97795 	-4.30820 	-3.02815 	-3.71900 	-3.80435 	-3.77855 	-2.41530 	-2.56680 	-2.55490 	-2.32200 	-1.02060 	-1.08875 	-1.23845 	-0.18685 	0.22770 
-1.93150 	-3.20455 	-4.98405 	-5.18850 	-5.28615 	-3.80695 	-5.52800 	-5.41085 	-5.06945 	-4.26670 	-4.18475 	-5.25610 	-5.03910 	-4.44465 	-2.90020 	-3.62835 	-3.82455 	-4.03015 	-2.33320 	-2.51735 	-2.56915 	-2.41270 	-0.99810 	-1.07110 	-1.24805 	-0.15265 	0.28590 
-1.90835 	-3.17190 	-4.91190 	-5.13325 	-5.30540 	-3.83365 	-5.39170 	-5.32160 	-5.08695 	-4.33260 	-4.00990 	-5.14840 	-5.08925 	-4.56875 	-2.75945 	-3.52195 	-3.83180 	-4.26865 	-2.24090 	-2.45680 	-2.57235 	-2.50140 	-0.97000 	-1.04695 	-1.25130 	-0.11625 	0.34510 
-1.88490 	-3.14420 	-4.82930 	-5.06805 	-5.30855 	-3.85485 	-5.23990 	-5.21715 	-5.09750 	-4.37875 	-3.82040 	-5.02100 	-5.12445 	-4.67780 	-2.60570 	-3.39960 	-3.82450 	-4.48665 	-2.13725 	-2.38400 	-2.56285 	-2.58590 	-0.93455 	-1.01490 	-1.24615 	-0.07665 	0.40615 
-1.86050 	-3.11880 	-4.73490 	-4.99155 	-5.29300 	-3.86830 	-5.07275 	-5.09785 	-5.09795 	-4.40375 	-3.61685 	-4.87525 	-5.14130 	-4.76950 	-2.43920 	-3.26165 	-3.80150 	-4.67750 	-2.02205 	-2.29860 	-2.53965 	-2.66390 	-0.89055 	-0.97435 	-1.23125 	-0.03315 	0.46955 
-1.83455 	-3.09255 	-4.62755 	-4.90275 	-5.25690 	-3.87195 	-4.89030 	-4.96405 	-5.08495 	-4.40740 	-3.40005 	-4.71250 	-5.13695 	-4.84165 	-2.26070 	-3.10890 	-3.76185 	-4.83555 	-1.89530 	-2.20040 	-2.50240 	-2.73305 	-0.83725 	-0.92525 	-1.20585 	0.01455 	0.53530 
-1.80645 	-3.06175 	-4.50615 	-4.80020 	-5.19885 	-3.86430 	-4.69280 	-4.81535 	-5.05535 	-4.39035 	-3.17080 	-4.53450 	-5.10925 	-4.89200 	-2.07090 	-2.94230 	-3.70505 	-4.95605 	-1.75735 	-2.08965 	-2.45070 	-2.79115 	-0.77445 	-0.86775 	-1.16955 	0.06630 	0.60295 
-1.77560 	-3.02245 	-4.36960 	-4.68290 	-5.11875 	-3.84470 	-4.48025 	-4.65155 	-5.00655 	-4.35410 	-2.92980 	-4.34260 	-5.05715 	-4.91830 	-1.87055 	-2.76310 	-3.63120 	-5.03560 	-1.60860 	-1.96655 	-2.38465 	-2.83605 	-0.70240 	-0.80230 	-1.12245 	0.12185 	0.67170 
-1.74150 	-2.97120 	-4.21725 	-4.55015 	-5.01745 	-3.81320 	-4.25280 	-4.47220 	-4.93675 	-4.30105 	-2.67760 	-4.13820 	-4.98040 	-4.91870 	-1.66025 	-2.57225 	-3.54105 	-5.07235 	-1.44930 	-1.83145 	-2.30450 	-2.86595 	-0.62120 	-0.72925 	-1.06465 	0.18090 	0.74050 
-1.70380 	-2.90520 	-4.04870 	-4.40200 	-4.89705 	-3.77090 	-4.01055 	-4.27700 	-4.84535 	-4.23445 	-2.41465 	-3.92245 	-4.87920 	-4.89185 	-1.44055 	-2.37115 	-3.43570 	-5.06620 	-1.27995 	-1.68465 	-2.21090 	-2.87970 	-0.53150 	-0.64910 	-0.99665 	0.24305 	0.80815 
-1.66270 	-2.82285 	-3.86420 	-4.23905 	-4.76015 	-3.71990 	-3.75385 	-4.06625 	-4.73265 	-4.15815 	-2.14125 	-3.69655 	-4.75465 	-4.83750 	-1.21220 	-2.16115 	-3.31690 	-5.01865 	-1.10120 	-1.52695 	-2.10475 	-2.87730 	-0.43405 	-0.56275 	-0.91960 	0.30760 	0.87315 
-1.61870 	-2.72365 	-3.66465 	-4.06265 	-4.60980 	-3.66275 	-3.48330 	-3.84040 	-4.59995 	-4.07605 	-1.85790 	-3.46175 	-4.60845 	-4.75680 	-0.97595 	-1.94395 	-3.18685 	-4.93320 	-0.91375 	-1.35915 	-1.98780 	-2.85980 	-0.33035 	-0.47140 	-0.83500 	0.37365 	0.93345 
-1.57300 	-2.60875 	-3.45135 	-3.87435 	-4.44870 	-3.60195 	-3.19980 	-3.60070 	-4.44895 	-3.99150 	-1.56530 	-3.21935 	-4.44315 	-4.65230 	-0.73300 	-1.72135 	-3.04805 	-4.81525 	-0.71885 	-1.18270 	-1.86185 	-2.82955 	-0.22175 	-0.37645 	-0.74505 	0.43990 	0.98695 
-1.52695 	-2.48030 	-3.22620 	-3.67630 	-4.27920 	-3.53960 	-2.90470 	-3.34890 	-4.28175 	-3.90650 	-1.26420 	-2.97065 	-4.26210 	-4.52810 	-0.48465 	-1.49525 	-2.90325 	-4.67145 	-0.51785 	-0.99915 	-1.72940 	-2.78985 	-0.11015 	-0.27950 	-0.65215 	0.50495 	1.03170 
-1.48205 	-2.34155 	-2.99140 	-3.47035 	-4.10330 	-3.47725 	-2.59955 	-3.08700 	-4.10070 	-3.82165 	-0.95565 	-2.71680 	-4.06870 	-4.38950 	-0.23200 	-1.26705 	-2.75535 	-4.50975 	-0.31210 	-0.81015 	-1.59260 	-2.74425 	0.00305 	-0.18175 	-0.55840 	0.56780 	1.06645 
-1.43975 	-2.19630 	-2.74915 	-3.25860 	-3.92260 	-3.41550 	-2.28595 	-2.81735 	-3.90815 	-3.73600 	-0.64035 	-2.45900 	-3.86655 	-4.24250 	0.02380 	-1.03800 	-2.60675 	-4.33825 	-0.10280 	-0.61700 	-1.45340 	-2.69625 	0.11690 	-0.08400 	-0.46570 	0.62765 	1.09085 
-1.40085 	-2.04865 	-2.50130 	-3.04260 	-3.73860 	-3.35425 	-1.96540 	-2.54215 	-3.70625 	-3.64760 	-0.31900 	-2.19810 	-3.65845 	-4.09335 	0.28220 	-0.80845 	-2.45905 	-4.16415 	0.10920 	-0.42050 	-1.31305 	-2.64855 	0.23100 	0.01365 	-0.37510 	0.68425 	1.10525 
-1.36565 	-1.90205 	-2.24910 	-2.82345 	-3.55185 	-3.29240 	-1.63885 	-2.26315 	-3.49630 	-3.55415 	0.00820 	-1.93460 	-3.44565 	-3.94780 	0.54330 	-0.57800 	-2.31280 	-3.99275 	0.32395 	-0.22095 	-1.17185 	-2.60215 	0.34610 	0.11205 	-0.28700 	0.73840 	1.11100 
-1.33305 	-1.75900 	-1.99270 	-2.60095 	-3.36225 	-3.22795 	-1.30630 	-1.98115 	-3.27870 	-3.45290 	0.34180 	-1.66805 	-3.22760 	-3.80985 	0.80810 	-0.34520 	-2.16700 	-3.82640 	0.54210 	-0.01745 	-1.02865 	-2.55640 	0.46390 	0.21270 	-0.20045 	0.79155 	1.11020 
-1.30120 	-1.62045 	-1.73120 	-2.37405 	-3.16845 	-3.15850 	-0.96675 	-1.69535 	-3.05265 	-3.34110 	0.68315 	-1.39720 	-3.00155 	-3.68170 	1.07850 	-0.10765 	-2.01895 	-3.66480 	0.76555 	0.19170 	-0.88150 	-2.50890 	0.58680 	0.31805 	-0.11395 	0.84625 	1.10580 
-1.26735 	-1.48630 	-1.46270 	-2.14065 	-2.96825 	-3.08105 	-0.61865 	-1.40415 	-2.81660 	-3.21650 	1.03390 	-1.11995 	-2.76330 	-3.56365 	1.35695 	0.13755 	-1.86490 	-3.50560 	0.99660 	0.40870 	-0.72740 	-2.45650 	0.71790 	0.43075 	-0.02515 	0.90525 	1.10115 
-1.22875 	-1.35500 	-1.18505 	-1.89835 	-2.75940 	-2.99300 	-0.26015 	-1.10520 	-2.56920 	-3.07720 	1.39570 	-0.83410 	-2.50830 	-3.45425 	1.64585 	0.39330 	-1.70060 	-3.34555 	1.23755 	0.63585 	-0.56335 	-2.39580 	0.86010 	0.55325 	0.06835 	0.97145 	1.09930 
-1.18280 	-1.22455 	-0.89630 	-1.64495 	-2.54035 	-2.89220 	0.11040 	-0.79615 	-2.31015 	-2.92225 	1.76985 	-0.53765 	-2.23265 	-3.35110 	1.94695 	0.66190 	-1.52230 	-3.18185 	1.49030 	0.87490 	-0.38670 	-2.32365 	1.01575 	0.68740 	0.16870 	1.04690 	1.10310 
-1.12775 	-1.09245 	-0.59500 	-1.37915 	-2.31065 	-2.77740 	0.49395 	-0.47530 	-2.04030 	-2.75195 	2.15655 	-0.22945 	-1.93385 	-3.25150 	2.26125 	0.94465 	-1.32705 	-3.01265 	1.75565 	1.12655 	-0.19570 	-2.23790 	1.18590 	0.83395 	0.27725 	1.13280 	1.11430 
-1.06260 	-0.95610 	-0.28070 	-1.10060 	-2.07105 	-2.64820 	0.89025 	-0.14180 	-1.76175 	-2.56750 	2.55510 	0.09100 	-1.61155 	-3.15315 	2.58845 	1.24170 	-1.11330 	-2.83770 	2.03340 	1.39060 	0.01015 	-2.13760 	1.37070 	0.99255 	0.39450 	1.22905 	1.13370 
-0.98750 	-0.81300 	0.04620 	-0.80990 	-1.82320 	-2.50520 	1.29830 	0.20395 	-1.47705 	-2.37145 	2.96400 	0.42345 	-1.26700 	-3.05485 	2.92710 	1.55225 	-0.88055 	-2.65810 	2.32205 	1.66570 	0.23040 	-2.02290 	1.56850 	1.16170 	0.51960 	1.33420 	1.16050 
-0.90325 	-0.66105 	0.38450 	-0.50845 	-1.56915 	-2.35000 	1.71620 	0.56105 	-1.18895 	-2.16720 	3.38110 	0.76710 	-0.90300 	-2.95645 	3.27525 	1.87470 	-0.62980 	-2.47595 	2.61925 	1.94950 	0.46340 	-1.89545 	1.77690 	1.33885 	0.65065 	1.44580 	1.19325 
-0.81120 	-0.49845 	0.73235 	-0.19800 	-1.31075 	-2.18495 	2.14160 	0.92795 	-0.89935 	-1.95890 	3.80365 	1.12090 	-0.52320 	-2.85885 	3.63005 	2.20675 	-0.36290 	-2.29385 	2.92185 	2.23920 	0.70670 	-1.75745 	1.99225 	1.52075 	0.78495 	1.56075 	1.22950 
-0.71295 	-0.32390 	1.08740 	0.11945 	-1.04960 	-2.01275 	2.57185 	1.30290 	-0.60965 	-1.75080 	4.22890 	1.48365 	-0.13180 	-2.76330 	3.98860 	2.54595 	-0.08235 	-2.11440 	3.22670 	2.53155 	0.95715 	-1.61185 	2.21070 	1.70400 	0.91960 	1.67570 	1.26645 
-0.61000 	-0.13670 	1.44720 	0.44205 	-0.78665 	-1.83595 	3.00425 	1.68405 	-0.32010 	-1.54680 	4.65425 	1.85385 	0.26700 	-2.67095 	4.34805 	2.88955 	0.20850 	-1.93985 	3.53055 	2.82350 	1.21140 	-1.46135 	2.42835 	1.88525 	1.05175 	1.78770 	1.30145 
-0.50360 	0.06300 	1.80925 	0.76805 	-0.52260 	-1.65660 	3.43625 	2.06970 	-0.03040 	-1.34920 	5.07715 	2.23000 	0.66915 	-2.58190 	4.70585 	3.23500 	0.50645 	-1.77200 	3.83055 	3.11230 	1.46630 	-1.30860 	2.64175 	2.06180 	1.17910 	1.89430 	1.33250 
-0.39465 	0.27450 	2.17110 	1.09595 	-0.25745 	-1.47585 	3.86540 	2.45790 	0.26010 	-1.15905 	5.49550 	2.61030 	1.07080 	-2.49510 	5.05985 	3.58010 	0.80815 	-1.61200 	4.12445 	3.39565 	1.71890 	-1.15560 	2.84820 	2.23180 	1.29985 	1.99410 	1.35825 
-0.28415 	0.49590 	2.53020 	1.42430 	0.00880 	-1.29430 	4.28930 	2.84675 	0.55200 	-0.97585 	5.90735 	2.99275 	1.46835 	-2.40835 	5.40810 	3.92285 	1.11045 	-1.46090 	4.41045 	3.67150 	1.96690 	-1.00405 	3.04540 	2.39370 	1.41305 	2.08620 	1.37795 
-0.17295 	0.72425 	2.88390 	1.75135 	0.27575 	-1.11230 	4.70565 	3.23365 	0.84565 	-0.79835 	6.31075 	3.37485 	1.85845 	-2.31880 	5.74895 	4.26115 	1.41020 	-1.31905 	4.68700 	3.93845 	2.20820 	-0.85535 	3.23165 	2.54650 	1.51790 	2.17030 	1.39120 
-0.06245 	0.95580 	3.22940 	2.07510 	0.54260 	-0.92985 	5.11170 	3.61575 	1.14075 	-0.62465 	6.70370 	3.75380 	2.23780 	-2.22330 	6.08065 	4.59305 	1.70445 	-1.18665 	4.95270 	4.19475 	2.44120 	-0.71065 	3.40560 	2.68950 	1.61405 	2.24605 	1.39790 
0.04585 	1.18565 	3.56390 	2.39315 	0.80780 	-0.74705 	5.50490 	3.98985 	1.43630 	-0.45330 	7.08395 	4.12620 	2.60320 	-2.11950 	6.40130 	4.91635 	1.99045 	-1.06310 	5.20610 	4.43895 	2.66440 	-0.57125 	3.56585 	2.82190 	1.70125 	2.31315 	1.39765 
0.14975 	1.40845 	3.88435 	2.70285 	1.06905 	-0.56380 	5.88225 	4.35225 	1.73075 	-0.28265 	7.44915 	4.48855 	2.95145 	-2.00560 	6.70895 	5.22885 	2.26575 	-0.94665 	5.44575 	4.66965 	2.87645 	-0.43815 	3.71145 	2.94305 	1.77930 	2.37115 	1.38990 
0.24730 	1.61860 	4.18795 	3.00145 	1.32390 	-0.38005 	6.24105 	4.69945 	2.02180 	-0.11145 	7.79675 	4.83700 	3.27940 	-1.88055 	7.00150 	5.52830 	2.52840 	-0.83400 	5.67020 	4.88555 	3.07645 	-0.31190 	3.84150 	3.05230 	1.84820 	2.41935 	1.37410 
0.33645 	1.81100 	4.47230 	3.28610 	1.56965 	-0.19610 	6.57875 	5.02810 	2.30700 	0.06150 	8.12455 	5.16805 	3.58420 	-1.74390 	7.27700 	5.81270 	2.77735 	-0.72070 	5.87825 	5.08550 	3.26365 	-0.19260 	3.95545 	3.14925 	1.90795 	2.45730 	1.34985 
0.41545 	1.98160 	4.73540 	3.55475 	1.80370 	-0.01215 	6.89325 	5.33555 	2.58375 	0.23725 	8.43050 	5.47865 	3.86365 	-1.59485 	7.53355 	6.08025 	3.01215 	-0.60170 	6.06875 	5.26880 	3.43760 	-0.07960 	4.05340 	3.23380 	1.95895 	2.48470 	1.31720 
0.48325 	2.12760 	4.97635 	3.80550 	2.02380 	0.17125 	7.18315 	5.61995 	2.84955 	0.41635 	8.71305 	5.76650 	4.11650 	-1.43320 	7.77005 	6.32990 	3.23300 	-0.47245 	6.24110 	5.43520 	3.59850 	0.02815 	4.13580 	3.30630 	2.00170 	2.50165 	1.27650 
0.53905 	2.24755 	5.19475 	4.03725 	2.22795 	0.35300 	7.44780 	5.88010 	3.10230 	0.59895 	8.97125 	6.03010 	4.34255 	-1.25895 	7.98570 	6.56080 	3.44055 	-0.33010 	6.39520 	5.58480 	3.74650 	0.13200 	4.20385 	3.36740 	2.03710 	2.50850 	1.22865 
0.58250 	2.34185 	5.39100 	4.24955 	2.41450 	0.53135 	7.68695 	6.11605 	3.34050 	0.78405 	9.20485 	6.26930 	4.54270 	-1.07310 	8.18015 	6.77275 	3.63570 	-0.17330 	6.53130 	5.71815 	3.88225 	0.23360 	4.25900 	3.41795 	2.06620 	2.50640 	1.17495 
0.61385 	2.41200 	5.56640 	4.44235 	2.58255 	0.70420 	7.90115 	6.32840 	3.56285 	0.96975 	9.41410 	6.48455 	4.71880 	-0.87765 	8.35385 	6.96610 	3.81960 	-0.00295 	6.65020 	5.83610 	4.00640 	0.33400 	4.30330 	3.45920 	2.09005 	2.49645 	1.11670 
0.63360 	2.46105 	5.72230 	4.61635 	2.73160 	0.86925 	8.09135 	6.51850 	3.76885 	1.15355 	9.60000 	6.67725 	4.87355 	-0.67510 	8.50755 	7.14150 	3.99320 	0.17860 	6.75285 	5.93970 	4.11965 	0.43410 	4.33865 	3.49220 	2.10985 	2.48010 	1.05515 
0.64260 	2.49295 	5.86080 	4.77275 	2.86195 	1.02465 	8.25910 	6.68825 	3.95825 	1.33270 	9.76380 	6.84890 	5.01010 	-0.46765 	8.64245 	7.29990 	4.15760 	0.36810 	6.84065 	6.03025 	4.22280 	0.53425 	4.36700 	3.51840 	2.12670 	2.45885 	0.99140 
0.64230 	2.51245 	5.98390 	4.91285 	2.97460 	1.16910 	8.40605 	6.83975 	4.13130 	1.50505 	9.90715 	7.00145 	5.13195 	-0.25705 	8.75990 	7.44225 	4.31350 	0.56195 	6.91490 	6.10910 	4.31665 	0.63455 	4.39005 	3.53885 	2.14185 	2.43400 	0.92640 
0.63445 	2.52470 	6.09385 	5.03845 	3.07125 	1.30235 	8.53420 	6.97480 	4.28830 	1.66895 	10.03160 	7.13635 	5.24190 	-0.04390 	8.86120 	7.56965 	4.46155 	0.75700 	6.97715 	6.17730 	4.40205 	0.73460 	4.40935 	3.55470 	2.15620 	2.40670 	0.86100 
0.62105 	2.53480 	6.19290 	5.15105 	3.15400 	1.42425 	8.64560 	7.09525 	4.42980 	1.82340 	10.13880 	7.25460 	5.34210 	0.17185 	8.94775 	7.68275 	4.60210 	0.95065 	7.02870 	6.23610 	4.47990 	0.83435 	4.42605 	3.56690 	2.17060 	2.37785 	0.79570 
0.60410 	2.54705 	6.28250 	5.25205 	3.22555 	1.53535 	8.74200 	7.20225 	4.55660 	1.96760 	10.23015 	7.35680 	5.43390 	0.39040 	9.02080 	7.78215 	4.73530 	1.14100 	7.07090 	6.28640 	4.55090 	0.93350 	4.44100 	3.57635 	2.18590 	2.34825 	0.73135 
0.58510 	2.56460 	6.36370 	5.34240 	3.28845 	1.63570 	8.82475 	7.29670 	4.66945 	2.10080 	10.30650 	7.44310 	5.51770 	0.61190 	9.08100 	7.86805 	4.86115 	1.32655 	7.10455 	6.32895 	4.61600 	1.03205 	4.45445 	3.58360 	2.20230 	2.31855 	0.66850 
0.56505 	2.58900 	6.43695 	5.42255 	3.34520 	1.72515 	8.89480 	7.37930 	4.76930 	2.22185 	10.36860 	7.51360 	5.59350 	0.83610 	9.12915 	7.94070 	4.97965 	1.50610 	7.13040 	6.36420 	4.67580 	1.13000 	4.46650 	3.58920 	2.22015 	2.28930 	0.60770 
0.54410 	2.62005 	6.50180 	5.49270 	3.39770 	1.80295 	8.95280 	7.45025 	4.85650 	2.32955 	10.41685 	7.56855 	5.66050 	1.06250 	9.16540 	8.00015 	5.09045 	1.67860 	7.14880 	6.39240 	4.73095 	1.22725 	4.47700 	3.59335 	2.23925 	2.26090 	0.54935 
0.52175 	2.65590 	6.55715 	5.55220 	3.44710 	1.86810 	8.99870 	7.50965 	4.93070 	2.42230 	10.45120 	7.60815 	5.71755 	1.28975 	9.19000 	8.04640 	5.19325 	1.84310 	7.15960 	6.41355 	4.78175 	1.32350 	4.48535 	3.59615 	2.25930 	2.23355 	0.49380 
0.49685 	2.69335 	6.60150 	5.60020 	3.49310 	1.91935 	9.03225 	7.55695 	4.99035 	2.49885 	10.47155 	7.63285 	5.76270 	1.51615 	9.20260 	8.07915 	5.28715 	1.99880 	7.16245 	6.42735 	4.82825 	1.41805 	4.49080 	3.59735 	2.27980 	2.20745 	0.44135 
0.46800 	2.72805 	6.63280 	5.63515 	3.53435 	1.95555 	9.05255 	7.59115 	5.03315 	2.55855 	10.47730 	7.64275 	5.79395 	1.74000 	9.20280 	8.09815 	5.37125 	2.14520 	7.15655 	6.43315 	4.87030 	1.51035 	4.49260 	3.59680 	2.30020 	2.18255 	0.39205 
0.43360 	2.75515 	6.64905 	5.65550 	3.56865 	1.97620 	9.05860 	7.61090 	5.05635 	2.60195 	10.46755 	7.63805 	5.80935 	1.95905 	9.18995 	8.10315 	5.44445 	2.28230 	7.14130 	6.43020 	4.90730 	1.59960 	4.48980 	3.59400 	2.32015 	2.15885 	0.34610 
0.39245 	2.76990 	6.64855 	5.65985 	3.59335 	1.98140 	9.04925 	7.61485 	5.05775 	2.63040 	10.44160 	7.61895 	5.80760 	2.17130 	9.16345 	8.09375 	5.50615 	2.41045 	7.11580 	6.41800 	4.93885 	1.68535 	4.48185 	3.58865 	2.33920 	2.13610 	0.30360 
0.34370 	2.76815 	6.63015 	5.64715 	3.60610 	1.97200 	9.02360 	7.60175 	5.03600 	2.64600 	10.39875 	7.58555 	5.78825 	2.37470 	9.12280 	8.06985 	5.55565 	2.53015 	7.07940 	6.39585 	4.96415 	1.76725 	4.46825 	3.58035 	2.35745 	2.11405 	0.26455 
0.28700 	2.74675 	6.59325 	5.61695 	3.60500 	1.94910 	8.98110 	7.57105 	4.99105 	2.65095 	10.33865 	7.53820 	5.75185 	2.56685 	9.06760 	8.03140 	5.59280 	2.64180 	7.03165 	6.36355 	4.98250 	1.84505 	4.44890 	3.56875 	2.37445 	2.09235 	0.22885 
0.22255 	2.70385 	6.53805 	5.56920 	3.58885 	1.91420 	8.92135 	7.52245 	4.92395 	2.64705 	10.26105 	7.47725 	5.69985 	2.74495 	8.99765 	7.97830 	5.61750 	2.74550 	6.97235 	6.32065 	4.99330 	1.91835 	4.42385 	3.55345 	2.39000 	2.07070 	0.19635 
0.15090 	2.63880 	6.46530 	5.50455 	3.55735 	1.86905 	8.84455 	7.45645 	4.83695 	2.63600 	10.16600 	7.40305 	5.63455 	2.90615 	8.91275 	7.91045 	5.62985 	2.84100 	6.90140 	6.26705 	4.99595 	1.98690 	4.39335 	3.53410 	2.40385 	2.04870 	0.16695 
0.07290 	2.55245 	6.37630 	5.42390 	3.51075 	1.81525 	8.75120 	7.37385 	4.73255 	2.61905 	10.05370 	7.31610 	5.55870 	3.04740 	8.81310 	7.82790 	5.63020 	2.92770 	6.81900 	6.20285 	4.99010 	2.05055 	4.35780 	3.51060 	2.41570 	2.02610 	0.14045 
-0.01010 	2.44690 	6.27265 	5.32875 	3.45005 	1.75475 	8.64180 	7.27565 	4.61355 	2.59765 	9.92480 	7.21685 	5.47495 	3.16615 	8.69885 	7.73090 	5.61910 	3.00520 	6.72560 	6.12840 	4.97560 	2.10925 	4.31780 	3.48305 	2.42570 	2.00275 	0.11685 
-0.09670 	2.32545 	6.15625 	5.22065 	3.37655 	1.68925 	8.51740 	7.16310 	4.48245 	2.57320 	9.77990 	7.10565 	5.38540 	3.26060 	8.57065 	7.61995 	5.59735 	3.07340 	6.62205 	6.04425 	4.95265 	2.16320 	4.27410 	3.45190 	2.43405 	1.97855 	0.09600 
-0.18535 	2.19245 	6.02920 	5.10120 	3.29170 	1.62035 	8.37920 	7.03730 	4.34170 	2.54710 	9.61995 	6.98305 	5.29160 	3.33035 	8.42930 	7.49575 	5.56620 	3.13260 	6.50925 	5.95110 	4.92170 	2.21270 	4.22745 	3.41760 	2.44115 	1.95330 	0.07785 
-0.27445 	2.05245 	5.89340 	4.97240 	3.19690 	1.54930 	8.22820 	6.89910 	4.19385 	2.52000 	9.44605 	6.84975 	5.19405 	3.37585 	8.27585 	7.35965 	5.52665 	3.18335 	6.38835 	5.85005 	4.88325 	2.25815 	4.17845 	3.38090 	2.44755 	1.92695 	0.06200 
-0.36275 	1.91015 	5.75050 	4.83565 	3.09350 	1.47675 	8.06540 	6.74925 	4.04130 	2.49205 	9.25925 	6.70630 	5.09215 	3.39810 	8.11150 	7.21295 	5.47995 	3.22600 	6.26050 	5.74185 	4.83795 	2.29955 	4.12750 	3.34235 	2.45345 	1.89930 	0.04820 
-0.44955 	1.76960 	5.60180 	4.69240 	2.98260 	1.40280 	7.89150 	6.58795 	3.88620 	2.46245 	9.06050 	6.55365 	4.98490 	3.39850 	7.93735 	7.05715 	5.42700 	3.26070 	6.12665 	5.62735 	4.78620 	2.33700 	4.07455 	3.30220 	2.45885 	1.87005 	0.03605 
-0.53480 	1.63390 	5.44770 	4.54320 	2.86485 	1.32670 	7.70675 	6.41525 	3.73045 	2.42985 	8.85055 	6.39235 	4.87095 	3.37800 	7.75440 	6.89365 	5.36840 	3.28630 	5.98750 	5.50700 	4.72835 	2.37015 	4.01920 	3.26025 	2.46330 	1.83885 	0.02500 
-0.61910 	1.50440 	5.28810 	4.38815 	2.74040 	1.24705 	7.51085 	6.23090 	3.57515 	2.39265 	8.62955 	6.22260 	4.74880 	3.33685 	7.56310 	6.72335 	5.30430 	3.30105 	5.84325 	5.38085 	4.66415 	2.39825 	3.96030 	3.21610 	2.46570 	1.80505 	0.01440 
-0.70395 	1.38125 	5.12215 	4.22655 	2.60870 	1.16215 	7.30295 	6.03390 	3.42060 	2.34905 	8.39730 	6.04395 	4.61740 	3.27475 	7.36355 	6.54660 	5.23455 	3.30210 	5.69365 	5.24860 	4.59305 	2.42010 	3.89640 	3.16840 	2.46430 	1.76785 	0.00330 
-0.79110 	1.26290 	4.94825 	4.05700 	2.46870 	1.07015 	7.08180 	5.82335 	3.26615 	2.29725 	8.15325 	5.85520 	4.47635 	3.19070 	7.15545 	6.36335 	5.15855 	3.28585 	5.53785 	5.10925 	4.51415 	2.43405 	3.82560 	3.11560 	2.45715 	1.72645 	-0.00935 
-0.88260 	1.14660 	4.76460 	3.87805 	2.31940 	0.96965 	6.84620 	5.59825 	3.11060 	2.23520 	7.89650 	5.65480 	4.32560 	3.08345 	6.93815 	6.17290 	5.07545 	3.24860 	5.37500 	4.96170 	4.42615 	2.43820 	3.74590 	3.05605 	2.44195 	1.67980 	-0.02450 
-0.98055 	1.02900 	4.56940 	3.68830 	2.16010 	0.85980 	6.59510 	5.35770 	2.95285 	2.16090 	7.62625 	5.44085 	4.16580 	2.95140 	6.71085 	5.97435 	4.98405 	3.18660 	5.20395 	4.80490 	4.32800 	2.43070 	3.65545 	2.98770 	2.41645 	1.62705 	-0.04345 
-1.08655 	0.90630 	4.36140 	3.48695 	1.99105 	0.74065 	6.32785 	5.10145 	2.79230 	2.07255 	7.34215 	5.21170 	3.99795 	2.79320 	6.47305 	5.76675 	4.88320 	3.09710 	5.02390 	4.63765 	4.21850 	2.40970 	3.55270 	2.90875 	2.37885 	1.56730 	-0.06725 
-1.20180 	0.77495 	4.13980 	3.27400 	1.81360 	0.61290 	6.04465 	4.83010 	2.62935 	1.96915 	7.04415 	4.96665 	3.82365 	2.60825 	6.22460 	5.54960 	4.77210 	2.97840 	4.83420 	4.45925 	4.09680 	2.37375 	3.43645 	2.81755 	2.32715 	1.49970 	-0.09700 
-1.32650 	0.63210 	3.90480 	3.05055 	1.63045 	0.47805 	5.74670 	4.54525 	2.46580 	1.85090 	6.73300 	4.70590 	3.64475 	2.39680 	5.96585 	5.32280 	4.65025 	2.83070 	4.63480 	4.26955 	3.96265 	2.32215 	3.30625 	2.71300 	2.26025 	1.42340 	-0.13360 
-1.46010 	0.47575 	3.65755 	2.81865 	1.44500 	0.33815 	5.43610 	4.24950 	2.30425 	1.71955 	6.41040 	4.43100 	3.46375 	2.16060 	5.69780 	5.08710 	4.51810 	2.65615 	4.42615 	4.06895 	3.81640 	2.25480 	3.16240 	2.59475 	2.17725 	1.33790 	-0.17770 
-1.60115 	0.30500 	3.39990 	2.58085 	1.26080 	0.19565 	5.11545 	3.94605 	2.14735 	1.57840 	6.07850 	4.14470 	3.28305 	1.90320 	5.42200 	4.84380 	4.37640 	2.45900 	4.20940 	3.85870 	3.65905 	2.17245 	3.00580 	2.46295 	2.07815 	1.24275 	-0.22970 
-1.74740 	0.12015 	3.13440 	2.34025 	1.08095 	0.05325 	4.78795 	3.63865 	1.99720 	1.43165 	5.74015 	3.85035 	3.10515 	1.62970 	5.14040 	4.59485 	4.22640 	2.24525 	3.98605 	3.64035 	3.49205 	2.07670 	2.83800 	2.31855 	1.96360 	1.13795 	-0.28940 
-1.89625 	-0.07740 	2.86355 	2.09935 	0.90745 	-0.08665 	4.45665 	3.33060 	1.85505 	1.28365 	5.39800 	3.55180 	2.93160 	1.34675 	4.85505 	4.34235 	4.06935 	2.02235 	3.75775 	3.41605 	3.31725 	1.96940 	2.66120 	2.16300 	1.83485 	1.02385 	-0.35615 
-2.04475 	-0.28530 	2.59015 	1.86060 	0.74125 	-0.22210 	4.12470 	3.02505 	1.72120 	1.13815 	5.05515 	3.25315 	2.76320 	1.06220 	4.56815 	4.08840 	3.90650 	1.79825 	3.52635 	3.18775 	3.13655 	1.85295 	2.47780 	1.99820 	1.69390 	0.90130 	-0.42865 
-2.19025 	-0.50030 	2.31660 	1.62590 	0.58175 	-0.35190 	3.79485 	2.72465 	1.59480 	0.99720 	4.71435 	2.95790 	2.60000 	0.78415 	4.28180 	3.83505 	3.73880 	1.58045 	3.29375 	2.95775 	2.95190 	1.72965 	2.29030 	1.82620 	1.54320 	0.77160 	-0.50560 
-2.33045 	-0.71870 	2.04515 	1.39635 	0.42730 	-0.47555 	3.46940 	2.43120 	1.47435 	0.86115 	4.37795 	2.66920 	2.44080 	0.52055 	3.99785 	3.58400 	3.56725 	1.37500 	3.06145 	2.72790 	2.76500 	1.60160 	2.10105 	1.64905 	1.38535 	0.63605 	-0.58525 
-2.46410 	-0.93695 	1.77705 	1.17240 	0.27525 	-0.59345 	3.14980 	2.14580 	1.35730 	0.72870 	4.04770 	2.38925 	2.28395 	0.27750 	3.71745 	3.33625 	3.39240 	1.18555 	2.83060 	2.49960 	2.57710 	1.47065 	1.91210 	1.46855 	1.22300 	0.49620 	-0.66630 
-2.59065 	-1.15155 	1.51320 	0.95385 	0.12235 	-0.70650 	2.83685 	1.86875 	1.24070 	0.59735 	3.72460 	2.11925 	2.12710 	0.05960 	3.44155 	3.09255 	3.21490 	1.01345 	2.60185 	2.27390 	2.38925 	1.33825 	1.72490 	1.28610 	1.05860 	0.35345 	-0.74725 
-2.71020 	-1.35945 	1.25395 	0.74005 	-0.03445 	-0.81600 	2.53080 	1.59990 	1.12125 	0.46425 	3.40890 	1.85975 	1.96800 	-0.13070 	3.17045 	2.85305 	3.03515 	0.85760 	2.37545 	2.05150 	2.20195 	1.20550 	1.54040 	1.10325 	0.89425 	0.20900 	-0.82710 
-2.82325 	-1.55805 	0.99935 	0.53035 	-0.19705 	-0.92335 	2.23165 	1.33885 	0.99600 	0.32690 	3.10070 	1.61035 	1.80460 	-0.29270 	2.90435 	2.61755 	2.85365 	0.71575 	2.15140 	1.83275 	2.01595 	1.07330 	1.35905 	0.92105 	0.73165 	0.06410 	-0.90470 
-2.93050 	-1.74520 	0.74955 	0.32430 	-0.36640 	-1.02960 	1.93915 	1.08545 	0.86265 	0.18370 	2.79965 	1.37015 	1.63590 	-0.42750 	2.64320 	2.38555 	2.67060 	0.58450 	1.92970 	1.61780 	1.83165 	0.94215 	1.18100 	0.74055 	0.57210 	-0.07995 	-0.97915 
-3.03255 	-1.91930 	0.50445 	0.12145 	-0.54205 	-1.13535 	1.65295 	0.83935 	0.71950 	0.03425 	2.50530 	1.13790 	1.46155 	-0.53745 	2.38675 	2.15650 	2.48620 	0.46075 	1.71010 	1.40675 	1.64935 	0.81225 	1.00625 	0.56265 	0.41640 	-0.22225 	-1.04985 
-3.13000 	-2.07955 	0.26410 	-0.07815 	-0.72260 	-1.24065 	1.37290 	0.60045 	0.56605 	-0.12070 	2.21715 	0.91225 	1.28215 	-0.62620 	2.13490 	1.92990 	2.30065 	0.34180 	1.49245 	1.19945 	1.46945 	0.68340 	0.83470 	0.38825 	0.26540 	-0.36155 	-1.11640 
-3.22320 	-2.22565 	0.02865 	-0.27440 	-0.90575 	-1.34455 	1.09875 	0.36885 	0.40250 	-0.27905 	1.93505 	0.69215 	1.09920 	-0.69785 	1.88775 	1.70550 	2.11475 	0.22575 	1.27725 	0.99625 	1.29255 	0.55550 	0.66615 	0.21815 	0.11955 	-0.49680 	-1.17855 
-3.31225 	-2.35810 	-0.20145 	-0.46670 	-1.08830 	-1.44570 	0.83080 	0.14510 	0.23040 	-0.43750 	1.65920 	0.47735 	0.91485 	-0.75655 	1.64560 	1.48380 	1.92970 	0.11225 	1.06510 	0.79770 	1.11970 	0.42870 	0.50125 	0.05360 	-0.02015 	-0.62690 	-1.23610 
-3.39675 	-2.47770 	-0.42535 	-0.65410 	-1.26675 	-1.54175 	0.56975 	-0.07015 	0.05235 	-0.59185 	1.39030 	0.26825 	0.73205 	-0.80585 	1.40940 	1.26620 	1.74750 	0.00185 	0.85745 	0.60500 	0.95260 	0.30390 	0.34085 	-0.10385 	-0.15205 	-0.75040 	-1.28840 
-3.47590 	-2.58555 	-0.64190 	-0.83490 	-1.43740 	-1.63000 	0.31680 	-0.27560 	-0.12795 	-0.73755 	1.12975 	0.06620 	0.55410 	-0.84855 	1.18060 	1.05450 	1.57060 	-0.10370 	0.65630 	0.41990 	0.79360 	0.18265 	0.18680 	-0.25210 	-0.27440 	-0.86580 	-1.33455 
-3.54865 	-2.68295 	-0.84940 	-1.00770 	-1.59650 	-1.70785 	0.07340 	-0.47000 	-0.30645 	-0.87045 	0.87910 	-0.12700 	0.38435 	-0.88640 	0.96075 	0.85105 	1.40170 	-0.20255 	0.46375 	0.24410 	0.64490 	0.06700 	0.04095 	-0.38915 	-0.38485 	-0.97150 	-1.37335 
-3.61380 	-2.77145 	-1.04640 	-1.17080 	-1.74090 	-1.77305 	-0.15905 	-0.65215 	-0.47905 	-0.98720 	0.63975 	-0.30975 	0.22600 	-0.91980 	0.75130 	0.65795 	1.24315 	-0.29320 	0.28190 	0.07955 	0.50865 	-0.04035 	-0.09455 	-0.51265 	-0.48135 	-1.06600 	-1.40350 
-3.67050 	-2.85270 	-1.23140 	-1.32295 	-1.86820 	-1.82435 	-0.37910 	-0.82115 	-0.64230 	-1.08520 	0.41305 	-0.48050 	0.08120 	-0.94880 	0.55345 	0.47700 	1.09665 	-0.37485 	0.11230 	-0.07275 	0.38635 	-0.13720 	-0.21805 	-0.62110 	-0.56245 	-1.14855 	-1.42405 
-3.71825 	-2.92850 	-1.40340 	-1.46325 	-1.97690 	-1.86115 	-0.58600 	-0.97675 	-0.79405 	-1.16260 	0.19960 	-0.63850 	-0.04910 	-0.97255 	0.36775 	0.30935 	0.96320 	-0.44785 	-0.04420 	-0.21220 	0.27845 	-0.22190 	-0.32845 	-0.71340 	-0.62750 	-1.21875 	-1.43470 
-3.75685 	-3.00045 	-1.56180 	-1.59140 	-2.06660 	-1.88365 	-0.77935 	-1.11915 	-0.93310 	-1.21830 	-0.00055 	-0.78360 	-0.16500 	-0.99040 	0.19400 	0.15525 	0.84300 	-0.51335 	-0.18760 	-0.33905 	0.18465 	-0.29375 	-0.42520 	-0.78945 	-0.67670 	-1.27720 	-1.43585 
-3.78625 	-3.06945 	-1.70615 	-1.70755 	-2.13795 	-1.89285 	-0.95920 	-1.24900 	-1.05945 	-1.25185 	-0.18770 	-0.91630 	-0.26750 	-1.00155 	0.03180 	0.01465 	0.73535 	-0.57290 	-0.31835 	-0.45380 	0.10400 	-0.35290 	-0.50845 	-0.84980 	-0.71115 	-1.32495 	-1.42870 
-3.80645 	-3.13575 	-1.83630 	-1.81200 	-2.19240 	-1.88975 	-1.12550 	-1.36685 	-1.17345 	-1.26360 	-0.36210 	-1.03690 	-0.35815 	-1.00535 	-0.11950 	-0.11290 	0.63950 	-0.62775 	-0.43715 	-0.55720 	0.03545 	-0.40015 	-0.57860 	-0.89540 	-0.73240 	-1.36325 	-1.41445 
-3.81700 	-3.19830 	-1.95150 	-1.90465 	-2.23165 	-1.87560 	-1.27800 	-1.47290 	-1.27540 	-1.25440 	-0.52370 	-1.14555 	-0.43810 	-1.00100 	-0.26015 	-0.22750 	0.55470 	-0.67810 	-0.54455 	-0.64960 	-0.02190 	-0.43625 	-0.63590 	-0.92695 	-0.74190 	-1.39320 	-1.39445 
-3.81710 	-3.25495 	-2.05105 	-1.98520 	-2.25745 	-1.85155 	-1.41590 	-1.56685 	-1.36505 	-1.22590 	-0.67205 	-1.24175 	-0.50830 	-0.98775 	-0.39005 	-0.32915 	0.48080 	-0.72310 	-0.64050 	-0.73090 	-0.06860 	-0.46165 	-0.68050 	-0.94520 	-0.74095 	-1.41560 	-1.36950 
-3.80565 	-3.30240 	-2.13390 	-2.05300 	-2.27115 	-1.81880 	-1.53840 	-1.64770 	-1.44200 	-1.18105 	-0.80635 	-1.32460 	-0.56920 	-0.96440 	-0.50835 	-0.41735 	0.41795 	-0.76035 	-0.72480 	-0.80075 	-0.10450 	-0.47615 	-0.71215 	-0.95045 	-0.73030 	-1.43075 	-1.34030 
-3.78145 	-3.33690 	-2.19895 	-2.10710 	-2.27385 	-1.77870 	-1.64440 	-1.71450 	-1.50545 	-1.12355 	-0.92590 	-1.39320 	-0.62135 	-0.92990 	-0.61425 	-0.49165 	0.36715 	-0.78705 	-0.79675 	-0.85825 	-0.12935 	-0.47920 	-0.73065 	-0.94290 	-0.71030 	-1.43865 	-1.30710 
-3.74330 	-3.35480 	-2.24550 	-2.14650 	-2.26630 	-1.73270 	-1.73305 	-1.76620 	-1.55460 	-1.05790 	-1.02980 	-1.44690 	-0.66495 	-0.88340 	-0.70685 	-0.55165 	0.32940 	-0.79990 	-0.85565 	-0.90265 	-0.14260 	-0.47025 	-0.73565 	-0.92280 	-0.68115 	-1.43925 	-1.27025 
-3.69075 	-3.35265 	-2.27340 	-2.17070 	-2.24875 	-1.68235 	-1.80395 	-1.80205 	-1.58890 	-0.98835 	-1.11795 	-1.48535 	-0.70030 	-0.82460 	-0.78535 	-0.59710 	0.30545 	-0.79640 	-0.90120 	-0.93335 	-0.14390 	-0.44890 	-0.72725 	-0.89060 	-0.64290 	-1.43245 	-1.23000 
-3.62365 	-3.32820 	-2.28295 	-2.17950 	-2.22150 	-1.62905 	-1.85740 	-1.82185 	-1.60815 	-0.91850 	-1.19045 	-1.50890 	-0.72760 	-0.75475 	-0.84930 	-0.62835 	0.29605 	-0.77575 	-0.93305 	-0.94995 	-0.13330 	-0.41560 	-0.70590 	-0.84700 	-0.59585 	-1.41840 	-1.18690 
-3.54265 	-3.28040 	-2.27535 	-2.17305 	-2.18520 	-1.57360 	-1.89410 	-1.82600 	-1.61305 	-0.85110 	-1.24785 	-1.51850 	-0.74715 	-0.67620 	-0.89870 	-0.64605 	0.30085 	-0.73905 	-0.95150 	-0.95255 	-0.11140 	-0.37155 	-0.67250 	-0.79290 	-0.54030 	-1.39730 	-1.14165 
-3.44880 	-3.20940 	-2.25245 	-2.15250 	-2.14060 	-1.51630 	-1.91550 	-1.81575 	-1.60450 	-0.78745 	-1.29145 	-1.51560 	-0.75935 	-0.59275 	-0.93385 	-0.65125 	0.31900 	-0.68935 	-0.95705 	-0.94180 	-0.07930 	-0.31890 	-0.62835 	-0.72955 	-0.47705 	-1.36970 	-1.09485 
-3.34360 	-3.11690 	-2.21650 	-2.11935 	-2.08900 	-1.45690 	-1.92345 	-1.79315 	-1.58375 	-0.72840 	-1.32240 	-1.50220 	-0.76470 	-0.50885 	-0.95550 	-0.64555 	0.34885 	-0.63150 	-0.95050 	-0.91885 	-0.03880 	-0.26050 	-0.57490 	-0.65845 	-0.40710 	-1.33610 	-1.04735 
-3.22890 	-3.00560 	-2.16995 	-2.07540 	-2.03175 	-1.39525 	-1.92005 	-1.76045 	-1.55185 	-0.67435 	-1.34215 	-1.48035 	-0.76370 	-0.42890 	-0.96445 	-0.63030 	0.38860 	-0.57080 	-0.93270 	-0.88495 	0.00820 	-0.19960 	-0.51385 	-0.58110 	-0.33175 	-1.29725 	-0.99965 
-3.10690 	-2.87950 	-2.11545 	-2.02265 	-1.97005 	-1.33110 	-1.90730 	-1.72000 	-1.50965 	-0.62560 	-1.35190 	-1.45195 	-0.75690 	-0.35685 	-0.96170 	-0.60685 	0.43610 	-0.51270 	-0.90465 	-0.84150 	0.05965 	-0.13965 	-0.44675 	-0.49925 	-0.25255 	-1.25360 	-0.95225 
-2.97985 	-2.74315 	-2.05550 	-1.96305 	-1.90520 	-1.26455 	-1.88740 	-1.67405 	-1.45760 	-0.58270 	-1.35300 	-1.41880 	-0.74545 	-0.29575 	-0.94835 	-0.57655 	0.48915 	-0.46150 	-0.86740 	-0.79020 	0.11360 	-0.08390 	-0.37530 	-0.41445 	-0.17120 	-1.20585 	-0.90555 
-2.85040 	-2.60225 	-1.99280 	-1.89880 	-1.83875 	-1.19600 	-1.86240 	-1.62500 	-1.39680 	-0.54610 	-1.34680 	-1.38300 	-0.73090 	-0.24755 	-0.92575 	-0.54065 	0.54530 	-0.41940 	-0.82225 	-0.73255 	0.16830 	-0.03485 	-0.30095 	-0.32835 	-0.08950 	-1.15445 	-0.85965 
-2.72155 	-2.46265 	-1.93010 	-1.83240 	-1.77255 	-1.12655 	-1.83475 	-1.57535 	-1.32910 	-0.51590 	-1.33485 	-1.34675 	-0.71555 	-0.21285 	-0.89560 	-0.50065 	0.60180 	-0.38615 	-0.77070 	-0.67045 	0.22210 	0.00590 	-0.22515 	-0.24275 	-0.00920 	-1.10015 	-0.81485 
-2.59655 	-2.33050 	-1.87035 	-1.76685 	-1.70915 	-1.05750 	-1.80710 	-1.52785 	-1.25695 	-0.49200 	-1.31950 	-1.31275 	-0.70155 	-0.19130 	-0.86020 	-0.45860 	0.65540 	-0.35925 	-0.71485 	-0.60600 	0.27335 	0.03730 	-0.14975 	-0.15960 	0.06795 	-1.04405 	-0.77190 
-2.47870 	-2.21170 	-1.81645 	-1.70525 	-1.65145 	-0.99125 	-1.78235 	-1.48530 	-1.18370 	-0.47420 	-1.30305 	-1.28380 	-0.69105 	-0.18195 	-0.82225 	-0.41690 	0.70295 	-0.33480 	-0.65720 	-0.54175 	0.32035 	0.05920 	-0.07650 	-0.08085 	0.14025 	-0.98750 	-0.73180 
-2.37135 	-2.11140 	-1.77145 	-1.65095 	-1.60270 	-0.93055 	-1.76355 	-1.45050 	-1.11320 	-0.46270 	-1.28815 	-1.26245 	-0.68520 	-0.18405 	-0.78475 	-0.37795 	0.74135 	-0.30865 	-0.60050 	-0.48025 	0.36145 	0.07170 	-0.00730 	-0.00865 	0.20565 	-0.93225 	-0.69580 
-2.27740 	-2.03340 	-1.73760 	-1.60680 	-1.56570 	-0.87865 	-1.75330 	-1.42545 	-1.04925 	-0.45825 	-1.27725 	-1.25100 	-0.68490 	-0.19725 	-0.75065 	-0.34425 	0.76810 	-0.27730 	-0.54755 	-0.42405 	0.39510 	0.07535 	0.05600 	0.05490 	0.26255 	-0.88025 	-0.66565 
-2.19920 	-1.98000 	-1.71695 	-1.57520 	-1.54265 	-0.83865 	-1.75375 	-1.41175 	-0.99550 	-0.46200 	-1.27235 	-1.25075 	-0.69025 	-0.22165 	-0.72275 	-0.31795 	0.78105 	-0.23830 	-0.50085 	-0.37545 	0.42015 	0.07065 	0.11175 	0.10795 	0.30930 	-0.83360 	-0.64295 
-2.13825 	-1.95165 	-1.71050 	-1.55770 	-1.53480 	-0.81310 	-1.76630 	-1.41020 	-0.95470 	-0.47560 	-1.27490 	-1.26250 	-0.70110 	-0.25765 	-0.70315 	-0.30075 	0.77925 	-0.19095 	-0.46245 	-0.33620 	0.43555 	0.05825 	0.15860 	0.14915 	0.34480 	-0.79420 	-0.62920 
-2.09470 	-1.94660 	-1.71825 	-1.55460 	-1.54215 	-0.80345 	-1.79140 	-1.42055 	-0.92810 	-0.49975 	-1.28550 	-1.28615 	-0.71670 	-0.30510 	-0.69315 	-0.29360 	0.76215 	-0.13590 	-0.43355 	-0.30735 	0.44115 	0.03895 	0.19580 	0.17775 	0.36865 	-0.76345 	-0.62525 
-2.06765 	-1.96135 	-1.73910 	-1.56510 	-1.56325 	-0.80970 	-1.82850 	-1.44195 	-0.91550 	-0.53460 	-1.30415 	-1.32075 	-0.73590 	-0.36360 	-0.69325 	-0.29670 	0.73020 	-0.07530 	-0.41470 	-0.28935 	0.43675 	0.01390 	0.22310 	0.19355 	0.38110 	-0.74220 	-0.63150 
-2.05505 	-1.99100 	-1.77125 	-1.58745 	-1.59580 	-0.83070 	-1.87605 	-1.47270 	-0.91525 	-0.57900 	-1.33005 	-1.36485 	-0.75730 	-0.43220 	-0.70305 	-0.30975 	0.68455 	-0.01275 	-0.40550 	-0.28185 	0.42290 	-0.01575 	0.24075 	0.19700 	0.38290 	-0.73080 	-0.64775 
-2.05390 	-2.02985 	-1.81230 	-1.61930 	-1.63695 	-0.86420 	-1.93230 	-1.51095 	-0.92525 	-0.63050 	-1.36235 	-1.41660 	-0.77970 	-0.50950 	-0.72180 	-0.33190 	0.62685 	0.04725 	-0.40535 	-0.28410 	0.40025 	-0.04890 	0.24910 	0.18910 	0.37520 	-0.72910 	-0.67325 
-2.06120 	-2.07210 	-1.85985 	-1.65830 	-1.68385 	-0.90740 	-1.99515 	-1.55490 	-0.94335 	-0.68560 	-1.39990 	-1.47420 	-0.80210 	-0.59425 	-0.74830 	-0.36220 	0.55890 	0.09920 	-0.41335 	-0.29515 	0.36945 	-0.08445 	0.24880 	0.17075 	0.35905 	-0.73660 	-0.70690 
-2.07360 	-2.11240 	-1.91170 	-1.70205 	-1.73380 	-0.95735 	-2.06275 	-1.60300 	-0.96780 	-0.74050 	-1.44175 	-1.53600 	-0.82420 	-0.68540 	-0.78125 	-0.39935 	0.48280 	0.13775 	-0.42845 	-0.31400 	0.33160 	-0.12160 	0.24010 	0.14325 	0.33560 	-0.75260 	-0.74745 
-2.08785 	-2.14615 	-1.96525 	-1.74825 	-1.78395 	-1.01115 	-2.13290 	-1.65360 	-0.99700 	-0.79150 	-1.48640 	-1.60005 	-0.84540 	-0.78245 	-0.81880 	-0.44170 	0.40100 	0.15805 	-0.44915 	-0.33900 	0.28805 	-0.15980 	0.22390 	0.10790 	0.30595 	-0.77605 	-0.79320 
-2.10085 	-2.16945 	-2.01805 	-1.79425 	-1.83135 	-1.06605 	-2.20305 	-1.70475 	-1.02900 	-0.83545 	-1.53215 	-1.66380 	-0.86495 	-0.88505 	-0.85870 	-0.48690 	0.31650 	0.15655 	-0.47370 	-0.36835 	0.24080 	-0.19825 	0.20110 	0.06665 	0.27120 	-0.80560 	-0.84235 
-2.10970 	-2.17960 	-2.06750 	-1.83725 	-1.87250 	-1.11970 	-2.27050 	-1.75405 	-1.06160 	-0.87005 	-1.57635 	-1.72440 	-0.88110 	-0.99280 	-0.89810 	-0.53200 	0.23295 	0.13170 	-0.49970 	-0.39960 	0.19220 	-0.23625 	0.17315 	0.02175 	0.23270 	-0.83955 	-0.89275 
-2.11205 	-2.17475 	-2.11090 	-1.87445 	-1.90400 	-1.17000 	-2.33215 	-1.79900 	-1.09205 	-0.89350 	-1.61650 	-1.77900 	-0.89210 	-1.10495 	-0.93385 	-0.57365 	0.15405 	0.08390 	-0.52475 	-0.43030 	0.14480 	-0.27305 	0.14180 	-0.02465 	0.19180 	-0.87615 	-0.94215 
-2.10630 	-2.15480 	-2.14615 	-1.90340 	-1.92310 	-1.21545 	-2.38530 	-1.83715 	-1.11780 	-0.90510 	-1.65000 	-1.82465 	-0.89590 	-1.21985 	-0.96325 	-0.60905 	0.08325 	0.01550 	-0.54660 	-0.45815 	0.10100 	-0.30775 	0.10885 	-0.07015 	0.14970 	-0.91330 	-0.98820 
-2.09165 	-2.12105 	-2.17175 	-1.92285 	-1.92825 	-1.25490 	-2.42795 	-1.86690 	-1.13660 	-0.90435 	-1.67475 	-1.85970 	-0.89070 	-1.33465 	-0.98405 	-0.63595 	0.02330 	-0.06960 	-0.56345 	-0.48135 	0.06270 	-0.33960 	0.07590 	-0.11280 	0.10730 	-0.94940 	-1.02895 
-2.06815 	-2.07600 	-2.18715 	-1.93215 	-1.91935 	-1.28725 	-2.45890 	-1.88725 	-1.14715 	-0.89145 	-1.68940 	-1.88335 	-0.87525 	-1.44545 	-0.99480 	-0.65290 	-0.02380 	-0.16660 	-0.57415 	-0.49855 	0.03130 	-0.36770 	0.04435 	-0.15115 	0.06535 	-0.98300 	-1.06275 
-2.03620 	-2.02290 	-2.19230 	-1.93155 	-1.89740 	-1.31150 	-2.47750 	-1.89820 	-1.14875 	-0.86645 	-1.69325 	-1.89555 	-0.84850 	-1.54740 	-0.99485 	-0.65925 	-0.05700 	-0.27020 	-0.57800 	-0.50910 	0.00790 	-0.39140 	0.01550 	-0.18395 	0.02445 	-1.01290 	-1.08860 
-1.99675 	-1.96530 	-2.18765 	-1.92170 	-1.86400 	-1.32645 	-2.48380 	-1.90005 	-1.14135 	-0.82960 	-1.68600 	-1.89700 	-0.81000 	-1.63495 	-0.98435 	-0.65515 	-0.07570 	-0.37510 	-0.57480 	-0.51250 	-0.00680 	-0.40980 	-0.00970 	-0.21030 	-0.01500 	-1.03840 	-1.10610 
-1.95040 	-1.90635 	-2.17360 	-1.90330 	-1.82085 	-1.33085 	-2.47795 	-1.89325 	-1.12515 	-0.78145 	-1.66750 	-1.88855 	-0.75975 	-1.70295 	-0.96345 	-0.64075 	-0.07985 	-0.47605 	-0.56445 	-0.50865 	-0.01230 	-0.42200 	-0.03020 	-0.22940 	-0.05230 	-1.05880 	-1.11525 
-1.89775 	-1.84850 	-2.15070 	-1.87680 	-1.76935 	-1.32390 	-2.46025 	-1.87800 	-1.10040 	-0.72345 	-1.63810 	-1.87095 	-0.69845 	-1.74780 	-0.93290 	-0.61665 	-0.06985 	-0.56855 	-0.54725 	-0.49770 	-0.00840 	-0.42755 	-0.04520 	-0.24090 	-0.08675 	-1.07385 	-1.11650 
-1.83945 	-1.79335 	-2.11915 	-1.84255 	-1.71080 	-1.30520 	-2.43100 	-1.85435 	-1.06730 	-0.65800 	-1.59800 	-1.84465 	-0.62740 	-1.76755 	-0.89345 	-0.58340 	-0.04635 	-0.64880 	-0.52350 	-0.48000 	0.00465 	-0.42625 	-0.05425 	-0.24475 	-0.11785 	-1.08340 	-1.11085 
-1.77590 	-1.74155 	-2.07900 	-1.80055 	-1.64605 	-1.27550 	-2.39065 	-1.82205 	-1.02620 	-0.58860 	-1.54775 	-1.80995 	-0.54875 	-1.76245 	-0.84605 	-0.54195 	-0.01045 	-0.71415 	-0.49410 	-0.45625 	0.02615 	-0.41835 	-0.05705 	-0.24145 	-0.14520 	-1.08795 	-1.10005 
-1.70775 	-1.69300 	-2.03060 	-1.75095 	-1.57600 	-1.23615 	-2.33980 	-1.78080 	-0.97765 	-0.51950 	-1.48780 	-1.76705 	-0.46525 	-1.73480 	-0.79210 	-0.49330 	0.03620 	-0.76290 	-0.46005 	-0.42745 	0.05475 	-0.40515 	-0.05430 	-0.23215 	-0.16880 	-1.08835 	-1.08595 
-1.63560 	-1.64665 	-1.97435 	-1.69420 	-1.50180 	-1.18940 	-2.27910 	-1.73035 	-0.92275 	-0.45480 	-1.41925 	-1.71590 	-0.38035 	-1.68835 	-0.73265 	-0.43850 	0.09170 	-0.79460 	-0.42285 	-0.39500 	0.08880 	-0.38840 	-0.04660 	-0.21830 	-0.18900 	-1.08550 	-1.07070 
-1.56010 	-1.60105 	-1.91080 	-1.63090 	-1.42480 	-1.13735 	-2.20970 	-1.67080 	-0.86305 	-0.39770 	-1.34315 	-1.65665 	-0.29760 	-1.62760 	-0.66930 	-0.37895 	0.15375 	-0.81015 	-0.38395 	-0.36035 	0.12625 	-0.37020 	-0.03540 	-0.20170 	-0.20640 	-1.08035 	-1.05610 
-1.48185 	-1.55425 	-1.84090 	-1.56205 	-1.34655 	-1.08175 	-2.13285 	-1.60270 	-0.80045 	-0.35035 	-1.26095 	-1.58975 	-0.22050 	-1.55755 	-0.60370 	-0.31600 	0.21975 	-0.81145 	-0.34505 	-0.32505 	0.16500 	-0.35320 	-0.02195 	-0.18400 	-0.22180 	-1.07360 	-1.04360 
-1.40180 	-1.50430 	-1.76580 	-1.48915 	-1.26870 	-1.02410 	-2.05035 	-1.52725 	-0.73720 	-0.31340 	-1.17450 	-1.51650 	-0.15195 	-1.48260 	-0.53750 	-0.25165 	0.28735 	-0.80130 	-0.30795 	-0.29075 	0.20315 	-0.34000 	-0.00775 	-0.16690 	-0.23615 	-1.06580 	-1.03405 
-1.32070 	-1.44965 	-1.68705 	-1.41360 	-1.19280 	-0.96505 	-1.96405 	-1.44615 	-0.67495 	-0.28615 	-1.08600 	-1.43880 	-0.09425 	-1.40690 	-0.47275 	-0.18795 	0.35435 	-0.78310 	-0.27420 	-0.25895 	0.23865 	-0.33280 	0.00555 	-0.15190 	-0.25040 	-1.05735 	-1.02815 
-1.23975 	-1.38920 	-1.60635 	-1.33705 	-1.12010 	-0.90465 	-1.87620 	-1.36135 	-0.61520 	-0.26690 	-0.99780 	-1.35940 	-0.04820 	-1.33330 	-0.41130 	-0.12710 	0.41895 	-0.76025 	-0.24550 	-0.23115 	0.27010 	-0.33355 	0.01660 	-0.14030 	-0.26555 	-1.04850 	-1.02605 
-1.16000 	-1.32250 	-1.52560 	-1.26120 	-1.05160 	-0.84250 	-1.78890 	-1.27540 	-0.55855 	-0.25325 	-0.91220 	-1.28130 	-0.01360 	-1.26375 	-0.35515 	-0.07135 	0.47990 	-0.73640 	-0.22330 	-0.20865 	0.29630 	-0.34340 	0.02405 	-0.13310 	-0.28240 	-1.03950 	-1.02790 
-1.08260 	-1.25020 	-1.44670 	-1.18755 	-0.98835 	-0.77805 	-1.70445 	-1.19070 	-0.50555 	-0.24265 	-0.83135 	-1.20790 	0.01070 	-1.19930 	-0.30605 	-0.02285 	0.53620 	-0.71510 	-0.20875 	-0.19265 	0.31620 	-0.36310 	0.02690 	-0.13110 	-0.30160 	-1.03055 	-1.03345 
-1.00910 	-1.17360 	-1.37170 	-1.11815 	-0.93150 	-0.71115 	-1.62495 	-1.11015 	-0.45695 	-0.23330 	-0.75755 	-1.14250 	0.02630 	-1.14030 	-0.26550 	0.01650 	0.58670 	-0.70010 	-0.20270 	-0.18430 	0.32890 	-0.39295 	0.02425 	-0.13480 	-0.32355 	-1.02200 	-1.04235 
-0.94095 	-1.09555 	-1.30285 	-1.05490 	-0.88255 	-0.64230 	-1.55260 	-1.03660 	-0.41405 	-0.22430 	-0.69260 	-1.08815 	0.03505 	-1.08695 	-0.23515 	0.04485 	0.63040 	-0.69510 	-0.20625 	-0.18460 	0.33350 	-0.43300 	0.01520 	-0.14485 	-0.34880 	-1.01430 	-1.05415 
-0.88005 	-1.01940 	-1.24230 	-0.99990 	-0.84300 	-0.57280 	-1.48955 	-0.97265 	-0.37825 	-0.21525 	-0.63840 	-1.04740 	0.03840 	-1.03970 	-0.21640 	0.06055 	0.66565 	-0.70385 	-0.22025 	-0.19490 	0.32895 	-0.48325 	-0.00110 	-0.16170 	-0.37785 	-1.00830 	-1.06880 
-0.82840 	-0.94955 	-1.19205 	-0.95490 	-0.81435 	-0.50430 	-1.43735 	-0.92055 	-0.35130 	-0.20665 	-0.59640 	-1.02230 	0.03725 	-0.99930 	-0.21050 	0.06205 	0.69060 	-0.72955 	-0.24545 	-0.21600 	0.31420 	-0.54365 	-0.02530 	-0.18600 	-0.41150 	-1.00470 	-1.08610 
-0.78805 	-0.89040 	-1.15375 	-0.92140 	-0.79750 	-0.43875 	-1.39735 	-0.88175 	-0.33470 	-0.19880 	-0.56770 	-1.01380 	0.03185 	-0.96725 	-0.21835 	0.04860 	0.70345 	-0.77445 	-0.28230 	-0.24875 	0.28845 	-0.61390 	-0.05780 	-0.21825 	-0.45050 	-1.00455 	-1.10645 
-0.76110 	-0.84660 	-1.12855 	-0.90030 	-0.79290 	-0.37795 	-1.37010 	-0.85680 	-0.32925 	-0.19270 	-0.55265 	-1.02175 	0.02190 	-0.94490 	-0.24015 	0.01970 	0.70235 	-0.83940 	-0.33085 	-0.29330 	0.25120 	-0.69310 	-0.09875 	-0.25875 	-0.49575 	-1.00840 	-1.13000 
-0.74905 	-0.82195 	-1.11705 	-0.89190 	-0.80065 	-0.32340 	-1.35560 	-0.84555 	-0.33555 	-0.18935 	-0.55135 	-1.04540 	0.00680 	-0.93335 	-0.27595 	-0.02440 	0.68615 	-0.92330 	-0.39085 	-0.34955 	0.20235 	-0.78005 	-0.14770 	-0.30740 	-0.54765 	-1.01665 	-1.15700 
-0.75335 	-0.81950 	-1.11940 	-0.89625 	-0.82050 	-0.27680 	-1.35355 	-0.84735 	-0.35350 	-0.19055 	-0.56310 	-1.08305 	-0.01470 	-0.93250 	-0.32500 	-0.08295 	0.65395 	-1.02355 	-0.46180 	-0.41690 	0.14200 	-0.87275 	-0.20390 	-0.36380 	-0.60630 	-1.02945 	-1.18750 
-0.77485 	-0.84125 	-1.13535 	-0.91290 	-0.85215 	-0.23960 	-1.36330 	-0.86120 	-0.38300 	-0.19810 	-0.58700 	-1.13280 	-0.04380 	-0.94085 	-0.38635 	-0.15460 	0.60585 	-1.13540 	-0.54275 	-0.49435 	0.07105 	-0.96890 	-0.26605 	-0.42705 	-0.67150 	-1.04640 	-1.22105 
-0.81385 	-0.88785 	-1.16425 	-0.94135 	-0.89520 	-0.21330 	-1.38400 	-0.88590 	-0.42365 	-0.21365 	-0.62180 	-1.19250 	-0.08195 	-0.95560 	-0.45845 	-0.23785 	0.54290 	-1.25280 	-0.63245 	-0.58065 	-0.00950 	-1.06590 	-0.33255 	-0.49585 	-0.74195 	-1.06685 	-1.25700 
-0.86985 	-0.95850 	-1.20515 	-0.98090 	-0.94905 	-0.19945 	-1.41460 	-0.92035 	-0.47490 	-0.23840 	-0.66610 	-1.26000 	-0.13045 	-0.97305 	-0.53970 	-0.33060 	0.46655 	-1.36890 	-0.72945 	-0.67405 	-0.09775 	-1.16080 	-0.40155 	-0.56835 	-0.81615 	-1.08990 	-1.29455 
-0.94190 	-1.05115 	-1.25700 	-1.03080 	-1.01330 	-0.19930 	-1.45395 	-0.96350 	-0.53585 	-0.27255 	-0.71830 	-1.33360 	-0.19020 	-0.98905 	-0.62845 	-0.43095 	0.37905 	-1.47665 	-0.83220 	-0.77280 	-0.19175 	-1.25085 	-0.47105 	-0.64255 	-0.89165 	-1.11435 	-1.33255 
-1.02835 	-1.16245 	-1.31840 	-1.09010 	-1.08735 	-0.21370 	-1.50100 	-1.01445 	-0.60530 	-0.31480 	-0.77700 	-1.41195 	-0.26150 	-1.00010 	-0.72285 	-0.53720 	0.28280 	-1.56990 	-0.93905 	-0.87510 	-0.28920 	-1.33360 	-0.53915 	-0.71640 	-0.96610 	-1.13900 	-1.36990 
-1.12690 	-1.28800 	-1.38780 	-1.15790 	-1.17055 	-0.24320 	-1.55465 	-1.07250 	-0.68170 	-0.36260 	-0.84090 	-1.49415 	-0.34355 	-1.00330 	-0.82150 	-0.64770 	0.18005 	-1.64365 	-1.04845 	-0.97930 	-0.38795 	-1.40695 	-0.60425 	-0.78765 	-1.03685 	-1.16285 	-1.40555 
-1.23510 	-1.42280 	-1.46370 	-1.23315 	-1.26195 	-0.28715 	-1.61375 	-1.13705 	-0.76320 	-0.41250 	-0.90870 	-1.57950 	-0.43440 	-0.99695 	-0.92295 	-0.76115 	0.07350 	-1.69490 	-1.15880 	-1.08375 	-0.48595 	-1.46945 	-0.66505 	-0.85465 	-1.10165 	-1.18485 	-1.43880 
-1.34970 	-1.56140 	-1.54415 	-1.31455 	-1.36050 	-0.34415 	-1.67705 	-1.20740 	-0.84800 	-0.46070 	-0.97920 	-1.66750 	-0.53130 	-0.98025 	-1.02565 	-0.87615 	-0.03415 	-1.72235 	-1.26835 	-1.18675 	-0.58115 	-1.52005 	-0.72055 	-0.91555 	-1.15865 	-1.20430 	-1.46880 
-1.46740 	-1.69810 	-1.62720 	-1.40065 	-1.46460 	-0.41195 	-1.74300 	-1.28265 	-0.93415 	-0.50390 	-1.05090 	-1.75735 	-0.63080 	-0.95305 	-1.12790 	-0.99105 	-0.14020 	-1.72600 	-1.37525 	-1.28660 	-0.67190 	-1.55815 	-0.76990 	-0.96915 	-1.20655 	-1.22035 	-1.49485 
-1.58445 	-1.82745 	-1.71060 	-1.48965 	-1.57225 	-0.48740 	-1.80990 	-1.36135 	-1.01935 	-0.53890 	-1.12225 	-1.84810 	-0.72905 	-0.91555 	-1.22780 	-1.10410 	-0.24185 	-1.70690 	-1.47750 	-1.38155 	-0.75610 	-1.58350 	-0.81230 	-1.01410 	-1.24430 	-1.23200 	-1.51570 
-1.69715 	-1.94480 	-1.79205 	-1.57915 	-1.68045 	-0.56690 	-1.87560 	-1.44130 	-1.10100 	-0.56360 	-1.19135 	-1.93825 	-0.82260 	-0.86800 	-1.32315 	-1.21310 	-0.33670 	-1.66645 	-1.57285 	-1.46960 	-0.83190 	-1.59565 	-0.84710 	-1.04900 	-1.27105 	-1.23790 	-1.52975 
-1.80215 	-2.04615 	-1.86930 	-1.66690 	-1.78610 	-0.64680 	-1.93805 	-1.52010 	-1.17645 	-0.57675 	-1.25620 	-2.02595 	-0.90835 	-0.81090 	-1.41180 	-1.31585 	-0.42260 	-1.60680 	-1.65915 	-1.54890 	-0.89780 	-1.59430 	-0.87335 	-1.07290 	-1.28615 	-1.23665 	-1.53520 
-1.89675 	-2.12920 	-1.94030 	-1.75020 	-1.88565 	-0.72360 	-1.99510 	-1.59500 	-1.24280 	-0.57800 	-1.31505 	-2.10930 	-0.98395 	-0.74540 	-1.49180 	-1.41025 	-0.49815 	-1.53030 	-1.73465 	-1.61815 	-0.95260 	-1.57945 	-0.89100 	-1.08490 	-1.28940 	-1.22695 	-1.53025 
-1.97905 	-2.19305 	-2.00350 	-1.82685 	-1.97585 	-0.79440 	-2.04505 	-1.66345 	-1.29755 	-0.56815 	-1.36650 	-2.18620 	-1.04825 	-0.67330 	-1.56180 	-1.49455 	-0.56245 	-1.43995 	-1.79825 	-1.67640 	-0.99575 	-1.55155 	-0.90000 	-1.08500 	-1.28090 	-1.20810 	-1.51390 
-2.04835 	-2.23840 	-2.05805 	-1.89510 	-2.05425 	-0.85695 	-2.08695 	-1.72360 	-1.33855 	-0.54890 	-1.40970 	-2.25510 	-1.10050 	-0.59740 	-1.62110 	-1.56775 	-0.61565 	-1.33960 	-1.84955 	-1.72375 	-1.02785 	-1.51200 	-0.90110 	-1.07365 	-1.26135 	-1.18000 	-1.48595 
-2.10475 	-2.26770 	-2.10385 	-1.95430 	-2.11910 	-0.91005 	-2.12050 	-1.77420 	-1.36470 	-0.52250 	-1.44475 	-2.31485 	-1.14105 	-0.52155 	-1.66985 	-1.62990 	-0.65860 	-1.23365 	-1.88910 	-1.76100 	-1.05020 	-1.46285 	-0.89550 	-1.05235 	-1.23205 	-1.14335 	-1.44695 
-2.14960 	-2.28465 	-2.14155 	-2.00435 	-2.17005 	-0.95340 	-2.14625 	-1.81525 	-1.37590 	-0.49175 	-1.47220 	-2.36510 	-1.17065 	-0.45040 	-1.70910 	-1.68165 	-0.69290 	-1.12725 	-1.91825 	-1.78995 	-1.06495 	-1.40710 	-0.88505 	-1.02340 	-1.19495 	-1.09965 	-1.39850 
-2.18455 	-2.29380 	-2.17255 	-2.04605 	-2.20760 	-0.98790 	-2.16540 	-1.84730 	-1.37330 	-0.46035 	-1.49335 	-2.40570 	-1.19065 	-0.38910 	-1.74055 	-1.72450 	-0.72085 	-1.02530 	-1.93900 	-1.81260 	-1.07480 	-1.34790 	-0.87170 	-0.98940 	-1.15240 	-1.05080 	-1.34245 
-2.21155 	-2.29975 	-2.19845 	-2.08040 	-2.23295 	-1.01510 	-2.17965 	-1.87155 	-1.35865 	-0.43210 	-1.50980 	-2.43715 	-1.20265 	-0.34290 	-1.76635 	-1.76025 	-0.74465 	-0.93230 	-1.95335 	-1.83120 	-1.08220 	-1.28855 	-0.85760 	-0.95330 	-1.10655 	-0.99895 	-1.28110 
-2.23240 	-2.30680 	-2.22065 	-2.10845 	-2.24725 	-1.03725 	-2.19055 	-1.88925 	-1.33450 	-0.41105 	-1.52300 	-2.45980 	-1.20805 	-0.31660 	-1.78860 	-1.79075 	-0.76650 	-0.85185 	-1.96360 	-1.84785 	-1.08945 	-1.23185 	-0.84450 	-0.91780 	-1.05995 	-0.94665 	-1.21705 
-2.24830 	-2.31810 	-2.24025 	-2.13080 	-2.25140 	-1.05640 	-2.19960 	-1.90190 	-1.30345 	-0.40085 	-1.53425 	-2.47425 	-1.20845 	-0.31395 	-1.80935 	-1.81765 	-0.78815 	-0.78620 	-1.97165 	-1.86435 	-1.09820 	-1.17995 	-0.83405 	-0.88535 	-1.01460 	-0.89620 	-1.15300 
-2.26005 	-2.33545 	-2.25795 	-2.14790 	-2.24605 	-1.07400 	-2.20775 	-1.91090 	-1.26815 	-0.40380 	-1.54470 	-2.48100 	-1.20530 	-0.33770 	-1.83030 	-1.84230 	-0.81085 	-0.73660 	-1.97910 	-1.88195 	-1.10990 	-1.13445 	-0.82730 	-0.85785 	-0.97245 	-0.84980 	-1.09135 
-2.26755 	-2.35945 	-2.27390 	-2.15990 	-2.23165 	-1.09095 	-2.21560 	-1.91735 	-1.23145 	-0.42090 	-1.55495 	-2.48070 	-1.20025 	-0.38895 	-1.85250 	-1.86570 	-0.83530 	-0.70340 	-1.98725 	-1.90150 	-1.12500 	-1.09625 	-0.82480 	-0.83680 	-0.93480 	-0.80920 	-1.03440 
-2.27050 	-2.38885 	-2.28760 	-2.16685 	-2.20890 	-1.10715 	-2.22355 	-1.92275 	-1.19585 	-0.45150 	-1.56540 	-2.47460 	-1.19470 	-0.46730 	-1.87660 	-1.88835 	-0.86170 	-0.68565 	-1.99680 	-1.92330 	-1.14370 	-1.06540 	-0.82665 	-0.82290 	-0.90250 	-0.77535 	-0.98335 
-2.26840 	-2.42170 	-2.29870 	-2.16925 	-2.17920 	-1.12210 	-2.23155 	-1.92825 	-1.16395 	-0.49370 	-1.57635 	-2.46400 	-1.19010 	-0.57090 	-1.90270 	-1.91065 	-0.88975 	-0.68220 	-2.00790 	-1.94720 	-1.16560 	-1.04175 	-0.83225 	-0.81625 	-0.87595 	-0.74860 	-0.93855 
-2.26100 	-2.45525 	-2.30665 	-2.16790 	-2.14460 	-1.13495 	-2.23970 	-1.93550 	-1.13785 	-0.54540 	-1.58800 	-2.45085 	-1.18750 	-0.69645 	-1.93065 	-1.93290 	-0.91890 	-0.69115 	-2.02065 	-1.97260 	-1.19000 	-1.02480 	-0.84090 	-0.81645 	-0.85490 	-0.72850 	-0.89970 
-2.24855 	-2.48665 	-2.31145 	-2.16390 	-2.10820 	-1.14545 	-2.24815 	-1.94570 	-1.11935 	-0.60470 	-1.60085 	-2.43710 	-1.18795 	-0.83935 	-1.96010 	-1.95520 	-0.94860 	-0.71055 	-2.03460 	-1.99880 	-1.21610 	-1.01365 	-0.85155 	-0.82290 	-0.83910 	-0.71430 	-0.86575 
-2.23160 	-2.51330 	-2.31335 	-2.15865 	-2.07290 	-1.15350 	-2.25725 	-1.96035 	-1.10970 	-0.67005 	-1.61530 	-2.42455 	-1.19205 	-0.99410 	-1.99080 	-1.97775 	-0.97830 	-0.73785 	-2.04960 	-2.02520 	-1.24305 	-1.00755 	-0.86345 	-0.83450 	-0.82800 	-0.70515 	-0.83560 
-2.21140 	-2.53300 	-2.31315 	-2.15380 	-2.04175 	-1.15960 	-2.26755 	-1.98025 	-1.10960 	-0.74030 	-1.63220 	-2.41490 	-1.20020 	-1.15435 	-2.02240 	-2.00085 	-1.00780 	-0.77030 	-2.06545 	-2.05120 	-1.27020 	-1.00590 	-0.87605 	-0.85060 	-0.82105 	-0.70020 	-0.80820 
-2.18955 	-2.54460 	-2.31220 	-2.15080 	-2.01715 	-1.16480 	-2.27995 	-2.00640 	-1.11950 	-0.81425 	-1.65245 	-2.40970 	-1.21285 	-1.31400 	-2.05510 	-2.02520 	-1.03750 	-0.80475 	-2.08210 	-2.07680 	-1.29740 	-1.00825 	-0.88945 	-0.87060 	-0.81825 	-0.69920 	-0.78310 
-2.16775 	-2.54805 	-2.31215 	-2.15130 	-2.00090 	-1.17060 	-2.29565 	-2.03960 	-1.13960 	-0.89050 	-1.67750 	-2.41070 	-1.23065 	-1.46755 	-2.08920 	-2.05170 	-1.06805 	-0.83815 	-2.10005 	-2.10245 	-1.32495 	-1.01435 	-0.90400 	-0.89415 	-0.81955 	-0.70230 	-0.76020 
-2.14790 	-2.54430 	-2.31525 	-2.15710 	-1.99420 	-1.17865 	-2.31610 	-2.08080 	-1.17040 	-0.96710 	-1.70860 	-2.41960 	-1.25415 	-1.61065 	-2.12520 	-2.08125 	-1.10050 	-0.86800 	-2.11995 	-2.12870 	-1.35335 	-1.02390 	-0.92050 	-0.92110 	-0.82515 	-0.70980 	-0.73945 
-2.13155 	-2.53515 	-2.32340 	-2.16940 	-1.99770 	-1.19055 	-2.34255 	-2.13045 	-1.21205 	-1.04165 	-1.74695 	-2.43810 	-1.28400 	-1.74035 	-2.16375 	-2.11480 	-1.13580 	-0.89250 	-2.14240 	-2.15635 	-1.38290 	-1.03635 	-0.93955 	-0.95100 	-0.83475 	-0.72175 	-0.72090 
-2.12000 	-2.52305 	-2.33825 	-2.18910 	-2.01120 	-1.20740 	-2.37585 	-2.18865 	-1.26435 	-1.11145 	-1.79335 	-2.46720 	-1.32020 	-1.85475 	-2.20505 	-2.15270 	-1.17455 	-0.91085 	-2.16790 	-2.18570 	-1.41365 	-1.05095 	-0.96140 	-0.98315 	-0.84780 	-0.73810 	-0.70415 
-2.11425 	-2.51070 	-2.36085 	-2.21670 	-2.03410 	-1.23010 	-2.41640 	-2.25475 	-1.32660 	-1.17455 	-1.84780 	-2.50710 	-1.36235 	-1.95300 	-2.24905 	-2.19500 	-1.21675 	-0.92375 	-2.19655 	-2.21670 	-1.44545 	-1.06690 	-0.98620 	-1.01665 	-0.86360 	-0.75840 	-0.68895 
-2.11500 	-2.50130 	-2.39190 	-2.25195 	-2.06545 	-1.25905 	-2.46380 	-2.32740 	-1.39740 	-1.22980 	-1.90975 	-2.55695 	-1.40960 	-2.03545 	-2.29535 	-2.24110 	-1.26205 	-0.93320 	-2.22825 	-2.24925 	-1.47780 	-1.08370 	-1.01375 	-1.05055 	-0.88140 	-0.78215 	-0.67540 
-2.12315 	-2.49800 	-2.43135 	-2.29445 	-2.10415 	-1.29425 	-2.51745 	-2.40495 	-1.47515 	-1.27745 	-1.97795 	-2.61510 	-1.46070 	-2.10345 	-2.34325 	-2.29000 	-1.30950 	-0.94250 	-2.26260 	-2.28290 	-1.51035 	-1.10140 	-1.04370 	-1.08410 	-0.90075 	-0.80890 	-0.66385 
-2.13915 	-2.50405 	-2.47900 	-2.34370 	-2.14945 	-1.33575 	-2.57645 	-2.48545 	-1.55810 	-1.31925 	-2.05105 	-2.67950 	-1.51470 	-2.15905 	-2.39200 	-2.34040 	-1.35815 	-0.95550 	-2.29895 	-2.31690 	-1.54265 	-1.12045 	-1.07575 	-1.11685 	-0.92140 	-0.83825 	-0.65505 
-2.16340 	-2.52225 	-2.53440 	-2.39900 	-2.20095 	-1.38320 	-2.63990 	-2.56730 	-1.64505 	-1.35785 	-2.12725 	-2.74765 	-1.57100 	-2.20465 	-2.44065 	-2.39090 	-1.40675 	-0.97565 	-2.33670 	-2.35050 	-1.57430 	-1.14160 	-1.10935 	-1.14855 	-0.94355 	-0.86995 	-0.65005 
-2.19655 	-2.55525 	-2.59700 	-2.46015 	-2.25875 	-1.43650 	-2.70700 	-2.64915 	-1.73530 	-1.39640 	-2.20515 	-2.81750 	-1.62980 	-2.24255 	-2.48845 	-2.44005 	-1.45440 	-1.00560 	-2.37490 	-2.38300 	-1.60515 	-1.16560 	-1.14390 	-1.17930 	-0.96710 	-0.90360 	-0.64965 
-2.23865 	-2.60460 	-2.66635 	-2.52705 	-2.32355 	-1.49550 	-2.77710 	-2.73030 	-1.82915 	-1.43765 	-2.28335 	-2.88735 	-1.69205 	-2.27460 	-2.53465 	-2.48680 	-1.50045 	-1.04685 	-2.41290 	-2.41375 	-1.63500 	-1.19295 	-1.17895 	-1.20920 	-0.99225 	-0.93925 	-0.65475 
-2.28965 	-2.67100 	-2.74175 	-2.59945 	-2.39585 	-1.56005 	-2.84970 	-2.81025 	-1.92660 	-1.48350 	-2.36050 	-2.95590 	-1.75935 	-2.30190 	-2.57865 	-2.53010 	-1.54435 	-1.09925 	-2.44985 	-2.44190 	-1.66370 	-1.22375 	-1.21365 	-1.23845 	-1.01890 	-0.97645 	-0.66595 
-2.34885 	-2.75345 	-2.82210 	-2.67660 	-2.47540 	-1.62970 	-2.92380 	-2.88845 	-2.02770 	-1.53445 	-2.43545 	-3.02180 	-1.83280 	-2.32470 	-2.61955 	-2.56880 	-1.58550 	-1.16115 	-2.48450 	-2.46645 	-1.69070 	-1.25730 	-1.24705 	-1.26680 	-1.04630 	-1.01485 	-0.68370 
-2.41480 	-2.84925 	-2.90555 	-2.75700 	-2.56100 	-1.70330 	-2.99800 	-2.96355 	-2.13100 	-1.58960 	-2.50640 	-3.08340 	-1.91255 	-2.34255 	-2.65610 	-2.60160 	-1.62300 	-1.23005 	-2.51545 	-2.48615 	-1.71505 	-1.29220 	-1.27755 	-1.29355 	-1.07350 	-1.05375 	-0.70800 
-2.48530 	-2.95430 	-2.98960 	-2.83810 	-2.65040 	-1.77940 	-3.07030 	-3.03350 	-2.23395 	-1.64715 	-2.57120 	-3.13865 	-1.99715 	-2.35455 	-2.68645 	-2.62670 	-1.65535 	-1.30225 	-2.54065 	-2.49910 	-1.73520 	-1.32645 	-1.30355 	-1.31745 	-1.09900 	-1.09210 	-0.73870 
-2.55750 	-3.06295 	-3.07105 	-2.91695 	-2.74070 	-1.85590 	-3.13800 	-3.09540 	-2.33330 	-1.70500 	-2.62730 	-3.18500 	-2.08340 	-2.36000 	-2.70850 	-2.64195 	-1.68080 	-1.37430 	-2.55800 	-2.50330 	-1.74945 	-1.35770 	-1.32295 	-1.33705 	-1.12120 	-1.12870 	-0.77535 
-2.62845 	-3.16935 	-3.14685 	-2.99035 	-2.82890 	-1.93050 	-3.19850 	-3.14635 	-2.42540 	-1.76170 	-2.67225 	-3.21980 	-2.16695 	-2.35885 	-2.71990 	-2.64515 	-1.69715 	-1.44330 	-2.56530 	-2.49665 	-1.75600 	-1.38395 	-1.33415 	-1.35075 	-1.13860 	-1.16235 	-0.81710 
-2.69550 	-3.26810 	-3.21430 	-3.05565 	-2.91250 	-2.00115 	-3.24955 	-3.18375 	-2.50740 	-1.81645 	-2.70420 	-3.24085 	-2.24320 	-2.35200 	-2.71890 	-2.63485 	-1.70280 	-1.50780 	-2.56080 	-2.47775 	-1.75335 	-1.40350 	-1.33595 	-1.35750 	-1.15045 	-1.19210 	-0.86340 
-2.75675 	-3.35435 	-3.27160 	-3.11095 	-2.98980 	-2.06635 	-3.28980 	-3.20595 	-2.57760 	-1.86940 	-2.72220 	-3.24695 	-2.30820 	-2.34125 	-2.70450 	-2.61015 	-1.69675 	-1.56820 	-2.54375 	-2.44570 	-1.74085 	-1.41565 	-1.32785 	-1.35655 	-1.15650 	-1.21760 	-0.91365 
-2.81135 	-3.42525 	-3.31810 	-3.15555 	-3.06030 	-2.12510 	-3.31895 	-3.21270 	-2.63535 	-1.92135 	-2.72660 	-3.23805 	-2.35970 	-2.32900 	-2.67660 	-2.57140 	-1.67890 	-1.62645 	-2.51420 	-2.40085 	-1.71850 	-1.42050 	-1.31035 	-1.34790 	-1.15715 	-1.23860 	-0.96735 
-2.85950 	-3.47950 	-3.35465 	-3.18975 	-3.12435 	-2.17710 	-3.33790 	-3.20505 	-2.68135 	-1.97315 	-2.71880 	-3.21555 	-2.39715 	-2.31780 	-2.63625 	-2.51980 	-1.65010 	-1.68570 	-2.47305 	-2.34430 	-1.68690 	-1.41915 	-1.28445 	-1.33190 	-1.15325 	-1.25525 	-1.02390 
-2.90205 	-3.51750 	-3.38280 	-3.21485 	-3.18335 	-2.22275 	-3.34840 	-3.18540 	-2.71710 	-2.02530 	-2.70115 	-3.18175 	-2.42200 	-2.30960 	-2.58510 	-2.45720 	-1.61160 	-1.74940 	-2.42185 	-2.27775 	-1.64725 	-1.41340 	-1.25140 	-1.30930 	-1.14585 	-1.26780 	-1.08240 
-2.94075 	-3.54120 	-3.40480 	-3.23285 	-3.23910 	-2.26305 	-3.35295 	-3.15675 	-2.74450 	-2.07815 	-2.67645 	-3.13940 	-2.43710 	-2.30565 	-2.52515 	-2.38575 	-1.56545 	-1.82050 	-2.36235 	-2.20320 	-1.60070 	-1.40520 	-1.21260 	-1.28095 	-1.13590 	-1.27635 	-1.14150 
-2.97720 	-3.55360 	-3.42320 	-3.24605 	-3.29370 	-2.29925 	-3.35395 	-3.12220 	-2.76605 	-2.13120 	-2.64740 	-3.09130 	-2.44575 	-2.30590 	-2.45840 	-2.30740 	-1.51350 	-1.90030 	-2.29630 	-2.12270 	-1.54825 	-1.39630 	-1.16905 	-1.24745 	-1.12410 	-1.28070 	-1.19935 
-3.01290 	-3.55810 	-3.44025 	-3.25650 	-3.34855 	-2.33260 	-3.35370 	-3.08470 	-2.78395 	-2.18350 	-2.61630 	-3.03990 	-2.45155 	-2.30870 	-2.38650 	-2.22390 	-1.45765 	-1.98810 	-2.22515 	-2.03790 	-1.49060 	-1.38785 	-1.12120 	-1.20900 	-1.11045 	-1.28035 	-1.25345 
-3.04885 	-3.55865 	-3.45755 	-3.26585 	-3.40440 	-2.36435 	-3.35395 	-3.04640 	-2.80000 	-2.23340 	-2.58475 	-2.98670 	-2.45680 	-2.31130 	-2.31070 	-2.13645 	-1.39940 	-2.08130 	-2.14990 	-1.95000 	-1.42820 	-1.38000 	-1.06910 	-1.16555 	-1.09460 	-1.27440 	-1.30105 
-3.08520 	-3.55860 	-3.47615 	-3.27510 	-3.46080 	-2.39545 	-3.35550 	-3.00870 	-2.81535 	-2.27905 	-2.55365 	-2.93270 	-2.46290 	-2.31025 	-2.23170 	-2.04585 	-1.33970 	-2.17555 	-2.07095 	-1.85985 	-1.36090 	-1.37225 	-1.01215 	-1.11650 	-1.07545 	-1.26165 	-1.33945 
-3.12185 	-3.56115 	-3.49645 	-3.28465 	-3.51660 	-2.42655 	-3.35900 	-2.97250 	-2.83005 	-2.31865 	-2.52350 	-2.87815 	-2.46980 	-2.30195 	-2.15000 	-1.95270 	-1.27900 	-2.26525 	-1.98850 	-1.76795 	-1.28870 	-1.36320 	-0.94970 	-1.06140 	-1.05170 	-1.24120 	-1.36645 
-3.15810 	-3.56900 	-3.51865 	-3.29470 	-3.57045 	-2.45805 	-3.36440 	-2.93855 	-2.84370 	-2.35075 	-2.49430 	-2.82330 	-2.47650 	-2.28340 	-2.06595 	-1.85775 	-1.21775 	-2.34405 	-1.90285 	-1.67450 	-1.21155 	-1.35125 	-0.88090 	-0.99955 	-1.02190 	-1.21235 	-1.38055 
-3.19320 	-3.58420 	-3.54270 	-3.30540 	-3.62095 	-2.48990 	-3.37175 	-2.90745 	-2.85565 	-2.37435 	-2.46625 	-2.76850 	-2.48120 	-2.25210 	-1.98020 	-1.76200 	-1.15645 	-2.40590 	-1.81425 	-1.58000 	-1.12975 	-1.33490 	-0.80510 	-0.93060 	-0.98485 	-1.17490 	-1.38125 
-3.22625 	-3.60815 	-3.56835 	-3.31675 	-3.66690 	-2.52160 	-3.38075 	-2.88000 	-2.86470 	-2.38915 	-2.43930 	-2.71430 	-2.48205 	-2.20665 	-1.89355 	-1.66655 	-1.09570 	-2.44505 	-1.72315 	-1.48505 	-1.04390 	-1.31285 	-0.72205 	-0.85460 	-0.93955 	-1.12930 	-1.36905 
-3.25620 	-3.64105 	-3.59520 	-3.32845 	-3.70740 	-2.55250 	-3.39105 	-2.85665 	-2.86960 	-2.39460 	-2.41350 	-2.66150 	-2.47685 	-2.14630 	-1.80680 	-1.57280 	-1.03635 	-2.45730 	-1.63010 	-1.39015 	-0.95495 	-1.28385 	-0.63165 	-0.77165 	-0.88535 	-1.07625 	-1.34485 
-3.28200 	-3.68220 	-3.62250 	-3.34020 	-3.74190 	-2.58140 	-3.40205 	-2.83740 	-2.86895 	-2.39030 	-2.38865 	-2.61085 	-2.46350 	-2.07110 	-1.72105 	-1.48210 	-0.97925 	-2.43975 	-1.53575 	-1.29595 	-0.86385 	-1.24720 	-0.53415 	-0.68220 	-0.82225 	-1.01680 	-1.31010 
-3.30255 	-3.72960 	-3.64915 	-3.35120 	-3.76990 	-2.60715 	-3.41285 	-2.82195 	-2.86155 	-2.37565 	-2.36450 	-2.56320 	-2.44015 	-1.98230 	-1.63695 	-1.39545 	-0.92500 	-2.39110 	-1.44045 	-1.20300 	-0.77135 	-1.20215 	-0.42995 	-0.58695 	-0.75050 	-0.95175 	-1.26610 
-3.31655 	-3.78020 	-3.67410 	-3.36070 	-3.79145 	-2.62850 	-3.42245 	-2.80965 	-2.84640 	-2.35050 	-2.34070 	-2.51935 	-2.40515 	-1.88195 	-1.55510 	-1.31355 	-0.87410 	-2.31165 	-1.34475 	-1.11160 	-0.67795 	-1.14830 	-0.31950 	-0.48640 	-0.67075 	-0.88200 	-1.21430 
-3.32280 	-3.83045 	-3.69595 	-3.36775 	-3.80660 	-2.64425 	-3.42980 	-2.79950 	-2.82290 	-2.31500 	-2.31650 	-2.47995 	-2.35765 	-1.77315 	-1.47570 	-1.23650 	-0.82625 	-2.20290 	-1.24880 	-1.02185 	-0.58385 	-1.08560 	-0.20355 	-0.38140 	-0.58400 	-0.80835 	-1.15580 
-3.32025 	-3.87605 	-3.71330 	-3.37140 	-3.81560 	-2.65345 	-3.43385 	-2.79070 	-2.79095 	-2.27015 	-2.29145 	-2.44520 	-2.29720 	-1.65975 	-1.39885 	-1.16435 	-0.78100 	-2.06760 	-1.15260 	-0.93380 	-0.48905 	-1.01425 	-0.08285 	-0.27280 	-0.49160 	-0.73145 	-1.09190 
-3.30810 	-3.91300 	-3.72490 	-3.37080 	-3.81820 	-2.65525 	-3.43350 	-2.78220 	-2.75065 	-2.21740 	-2.26480 	-2.41535 	-2.22445 	-1.54615 	-1.32450 	-1.09670 	-0.73750 	-1.90965 	-1.05655 	-0.84745 	-0.39365 	-0.93495 	0.04115 	-0.16160 	-0.39485 	-0.65215 	-1.02375 
-3.28625 	-3.93765 	-3.72975 	-3.36530 	-3.81425 	-2.64910 	-3.42815 	-2.77310 	-2.70255 	-2.15830 	-2.23625 	-2.39020 	-2.14085 	-1.43660 	-1.25240 	-1.03310 	-0.69500 	-1.73385 	-0.96085 	-0.76300 	-0.29790 	-0.84900 	0.16710 	-0.04915 	-0.29540 	-0.57115 	-0.95270 
-3.25495 	-3.94725 	-3.72740 	-3.35440 	-3.80335 	-2.63460 	-3.41740 	-2.76295 	-2.64750 	-2.09460 	-2.20535 	-2.36955 	-2.04880 	-1.33460 	-1.18255 	-0.97335 	-0.65285 	-1.54605 	-0.86620 	-0.68070 	-0.20240 	-0.75810 	0.29295 	0.06270 	-0.19495 	-0.48945 	-0.88015 
-3.21515 	-3.94045 	-3.71805 	-3.33825 	-3.78570 	-2.61240 	-3.40180 	-2.75170 	-2.58690 	-2.02795 	-2.17225 	-2.35335 	-1.95120 	-1.24295 	-1.11530 	-0.91745 	-0.61050 	-1.35270 	-0.77350 	-0.60135 	-0.10825 	-0.66445 	0.41640 	0.17215 	-0.09545 	-0.40830 	-0.80770 
-3.16850 	-3.91740 	-3.70265 	-3.31775 	-3.76170 	-2.58335 	-3.38225 	-2.73995 	-2.52300 	-1.95995 	-2.13765 	-2.34195 	-1.85165 	-1.16345 	-1.05140 	-0.86585 	-0.56775 	-1.16070 	-0.68420 	-0.52590 	-0.01695 	-0.57010 	0.53490 	0.27680 	0.00135 	-0.32905 	-0.73715 
-3.11700 	-3.87970 	-3.68290 	-3.29425 	-3.73210 	-2.54900 	-3.36040 	-2.72895 	-2.45805 	-1.89180 	-2.10260 	-2.33600 	-1.75405 	-1.09695 	-0.99180 	-0.81920 	-0.52450 	-0.97680 	-0.59995 	-0.45565 	0.06990 	-0.47705 	0.64600 	0.37465 	0.09350 	-0.25305 	-0.67025 
-3.06270 	-3.83015 	-3.66075 	-3.26940 	-3.69780 	-2.51090 	-3.33805 	-2.72035 	-2.39450 	-1.82445 	-2.06860 	-2.33635 	-1.66200 	-1.04390 	-0.93770 	-0.77820 	-0.48105 	-0.80690 	-0.52250 	-0.39195 	0.15055 	-0.38700 	0.74715 	0.46345 	0.17910 	-0.18170 	-0.60875 
-3.00790 	-3.77260 	-3.63845 	-3.24510 	-3.65960 	-2.47020 	-3.31730 	-2.71570 	-2.33440 	-1.75840 	-2.03700 	-2.34390 	-1.57870 	-1.00400 	-0.89030 	-0.74370 	-0.43765 	-0.65585 	-0.45350 	-0.33585 	0.22365 	-0.30125 	0.83650 	0.54145 	0.25665 	-0.11615 	-0.55420 
-2.95455 	-3.71140 	-3.61795 	-3.22295 	-3.61825 	-2.42825 	-3.29980 	-2.71675 	-2.27930 	-1.69410 	-2.00930 	-2.35925 	-1.50640 	-0.97675 	-0.85070 	-0.71635 	-0.39490 	-0.52665 	-0.39435 	-0.28865 	0.28795 	-0.22080 	0.91260 	0.60730 	0.32475 	-0.05740 	-0.50765 
