[Subject]	
[Date]	05/30/2016
[Time]	17:35:24
[Channels]	27
[Rate]	1000.000000
[Type]	Average
[Points]	1351
[Xmin]	-100.00000
[Sweeps]	5047
[Accepted]	120
[Rejected]	4927
[Domain]	Time
[Rows]	Points																									
[Electrode Labels]																											
[FP2]	        [AF4]	        [F2]	        [F4]	        [F6]	        [F8]	        [FC2]	        [FC4]	        [FC6]	        [FT8]	        [C2]	        [C4]	        [C6]	        [T8]	        [CP2]	        [CP4]	        [CP6]	        [TP8]	        [P2]	        [P4]	        [P6]	        [P8]	        [PO4]	        [PO6]	        [PO8]	        [O2]	        [CB2]	
[Electrode XUnits]																											
[Default]	[Default]	[Default]	[Default]	[Default]	[Default]	[Default]	[Default]	[Default]	[Default]	[Default]	[Default]	[Default]	[Default]	[Default]	[Default]	[Default]	[Default]	[Default]	[Default]	[Default]	[Default]	[Default]	[Default]	[Default]	[Default]	[Default]	
[Electrode YUnits]																											
[Default]	[Default]	[Default]	[Default]	[Default]	[Default]	[Default]	[Default]	[Default]	[Default]	[Default]	[Default]	[Default]	[Default]	[Default]	[Default]	[Default]	[Default]	[Default]	[Default]	[Default]	[Default]	[Default]	[Default]	[Default]	[Default]	[Default]	
[Average Data]
0.88685 	1.07205 	1.19110 	1.16460 	1.24240 	1.15100 	1.14925 	1.09085 	0.87290 	1.12770 	1.22810 	1.16195 	0.90160 	0.78015 	1.09185 	1.19315 	1.16985 	0.93135 	0.93605 	1.04075 	1.08395 	0.57160 	0.73635 	0.74845 	0.73700 	0.33685 	0.09230 
0.94450 	1.12170 	1.25610 	1.22915 	1.27625 	1.18705 	1.20710 	1.15425 	0.91205 	1.22510 	1.26160 	1.20980 	0.94370 	0.82450 	1.10605 	1.21465 	1.20240 	0.92395 	0.94635 	1.05080 	1.09500 	0.58905 	0.72980 	0.74610 	0.73790 	0.32115 	0.07270 
0.99675 	1.15875 	1.31335 	1.28985 	1.30910 	1.21740 	1.25905 	1.21430 	0.95745 	1.31070 	1.29100 	1.25125 	0.98215 	0.86660 	1.11800 	1.23210 	1.23015 	0.90810 	0.95500 	1.05870 	1.10045 	0.60510 	0.72175 	0.74120 	0.73560 	0.30555 	0.05330 
1.04360 	1.18555 	1.36295 	1.34640 	1.34170 	1.24285 	1.30480 	1.27050 	1.00945 	1.38365 	1.31615 	1.28590 	1.01840 	0.90475 	1.12780 	1.24565 	1.25345 	0.88565 	0.96195 	1.06445 	1.10055 	0.62020 	0.71240 	0.73410 	0.73045 	0.28980 	0.03410 
1.08560 	1.20460 	1.40535 	1.39840 	1.37470 	1.26415 	1.34445 	1.32250 	1.06775 	1.44350 	1.33720 	1.31380 	1.05375 	0.93760 	1.13570 	1.25555 	1.27260 	0.85885 	0.96740 	1.06820 	1.09590 	0.63500 	0.70205 	0.72520 	0.72295 	0.27395 	0.01525 
1.12350 	1.21945 	1.44140 	1.44585 	1.40870 	1.28190 	1.37830 	1.37020 	1.13185 	1.48965 	1.35450 	1.33545 	1.08925 	0.96425 	1.14200 	1.26225 	1.28820 	0.83020 	0.97160 	1.07050 	1.08740 	0.64995 	0.69135 	0.71515 	0.71395 	0.25825 	-0.00270 
1.15810 	1.23335 	1.47190 	1.48860 	1.44370 	1.29645 	1.40690 	1.41340 	1.20035 	1.52205 	1.36830 	1.35195 	1.12535 	0.98435 	1.14700 	1.26620 	1.30050 	0.80190 	0.97500 	1.07175 	1.07610 	0.66565 	0.68075 	0.70460 	0.70380 	0.24285 	-0.01960 
1.19020 	1.24905 	1.49770 	1.52675 	1.47940 	1.30785 	1.43055 	1.45200 	1.27120 	1.54060 	1.37880 	1.36430 	1.16185 	0.99795 	1.15115 	1.26785 	1.31000 	0.77555 	0.97765 	1.07240 	1.06310 	0.68215 	0.67060 	0.69395 	0.69285 	0.22770 	-0.03540 
1.22020 	1.26885 	1.51940 	1.55980 	1.51500 	1.31600 	1.44960 	1.48570 	1.34170 	1.54530 	1.38610 	1.37350 	1.19800 	1.00520 	1.15430 	1.26750 	1.31655 	0.75255 	0.97965 	1.07265 	1.04900 	0.69920 	0.66080 	0.68320 	0.68085 	0.21245 	-0.05040 
1.24830 	1.29375 	1.53710 	1.58730 	1.54895 	1.32055 	1.46395 	1.51405 	1.40880 	1.53635 	1.39000 	1.38040 	1.23245 	1.00670 	1.15650 	1.26530 	1.32015 	0.73365 	0.98080 	1.07245 	1.03435 	0.71620 	0.65110 	0.67220 	0.66720 	0.19695 	-0.06510 
1.27425 	1.32375 	1.55075 	1.60850 	1.57945 	1.32095 	1.47340 	1.53630 	1.46940 	1.51395 	1.39010 	1.38545 	1.26325 	1.00330 	1.15735 	1.26120 	1.32075 	0.71970 	0.98080 	1.07155 	1.01935 	0.73255 	0.64110 	0.66050 	0.65135 	0.18090 	-0.07985 
1.29770 	1.35785 	1.55980 	1.62265 	1.60455 	1.31675 	1.47765 	1.55175 	1.52030 	1.47885 	1.38590 	1.38865 	1.28865 	0.99615 	1.15650 	1.25515 	1.31785 	0.71130 	0.97915 	1.06970 	1.00375 	0.74740 	0.63015 	0.64775 	0.63290 	0.16425 	-0.09490 
1.31810 	1.39400 	1.56370 	1.62900 	1.62225 	1.30785 	1.47600 	1.55935 	1.55885 	1.43190 	1.37675 	1.38955 	1.30685 	0.98655 	1.15320 	1.24670 	1.31100 	0.70865 	0.97515 	1.06615 	0.98735 	0.75990 	0.61770 	0.63350 	0.61150 	0.14715 	-0.11040 
1.33465 	1.42970 	1.56170 	1.62690 	1.63080 	1.29450 	1.46795 	1.55815 	1.58295 	1.37490 	1.36180 	1.38725 	1.31635 	0.97570 	1.14660 	1.23520 	1.29925 	0.71130 	0.96785 	1.06015 	0.96940 	0.76925 	0.60310 	0.61745 	0.58720 	0.12980 	-0.12605 
1.34650 	1.46190 	1.55305 	1.61600 	1.62940 	1.27735 	1.45280 	1.54720 	1.59140 	1.31005 	1.34050 	1.38045 	1.31650 	0.96450 	1.13550 	1.21980 	1.28160 	0.71825 	0.95610 	1.05060 	0.94915 	0.77445 	0.58545 	0.59905 	0.56015 	0.11245 	-0.14190 
1.35270 	1.48755 	1.53710 	1.59630 	1.61780 	1.25720 	1.43020 	1.52570 	1.58390 	1.24050 	1.31190 	1.36785 	1.30685 	0.95365 	1.11885 	1.19955 	1.25695 	0.72785 	0.93895 	1.03630 	0.92570 	0.77450 	0.56410 	0.57810 	0.53070 	0.09540 	-0.15760 
1.35245 	1.50370 	1.51340 	1.56835 	1.59610 	1.23475 	1.39975 	1.49355 	1.56095 	1.16965 	1.27565 	1.34830 	1.28780 	0.94320 	1.09555 	1.17330 	1.22450 	0.73830 	0.91505 	1.01620 	0.89845 	0.76870 	0.53845 	0.55420 	0.49950 	0.07885 	-0.17305 
1.34505 	1.50795 	1.48215 	1.53285 	1.56510 	1.21030 	1.36165 	1.45100 	1.52365 	1.10085 	1.23160 	1.32105 	1.25990 	0.93265 	1.06475 	1.14045 	1.18385 	0.74765 	0.88370 	0.98930 	0.86675 	0.75635 	0.50810 	0.52725 	0.46715 	0.06280 	-0.18820 
1.33025 	1.49890 	1.44360 	1.49100 	1.52550 	1.18390 	1.31640 	1.39895 	1.47345 	1.03660 	1.18005 	1.28595 	1.22400 	0.92085 	1.02590 	1.10030 	1.13520 	0.75410 	0.84440 	0.95495 	0.83045 	0.73695 	0.47285 	0.49705 	0.43430 	0.04735 	-0.20285 
1.30820 	1.47615 	1.39880 	1.44430 	1.47855 	1.15540 	1.26515 	1.33900 	1.41190 	0.97840 	1.12165 	1.24340 	1.18120 	0.90605 	0.97890 	1.05285 	1.07920 	0.75560 	0.79705 	0.91275 	0.78945 	0.71035 	0.43270 	0.46345 	0.40130 	0.03210 	-0.21725 
1.27965 	1.44045 	1.34920 	1.39455 	1.42595 	1.12450 	1.20935 	1.27335 	1.34130 	0.92640 	1.05760 	1.19465 	1.13265 	0.88610 	0.92410 	0.99830 	1.01710 	0.75040 	0.74200 	0.86285 	0.74395 	0.67650 	0.38780 	0.42635 	0.36840 	0.01685 	-0.23160 
1.24580 	1.39380 	1.29650 	1.34365 	1.36910 	1.09115 	1.15085 	1.20445 	1.26410 	0.87965 	0.98940 	1.14120 	1.07955 	0.85865 	0.86220 	0.93730 	0.95050 	0.73670 	0.67975 	0.80565 	0.69435 	0.63580 	0.33860 	0.38565 	0.33560 	0.00105 	-0.24630 
1.20825 	1.33905 	1.24265 	1.29325 	1.30960 	1.05540 	1.09150 	1.13465 	1.18300 	0.83670 	0.91870 	1.08495 	1.02295 	0.82150 	0.79435 	0.87105 	0.88090 	0.71290 	0.61145 	0.74200 	0.64135 	0.58880 	0.28565 	0.34165 	0.30280 	-0.01580 	-0.26140 
1.16860 	1.27970 	1.18960 	1.24465 	1.24835 	1.01770 	1.03310 	1.06605 	1.10025 	0.79575 	0.84710 	1.02755 	0.96365 	0.77305 	0.72180 	0.80060 	0.80980 	0.67785 	0.53825 	0.67295 	0.58550 	0.53620 	0.22955 	0.29440 	0.26985 	-0.03390 	-0.27690 
1.12870 	1.21950 	1.13890 	1.19875 	1.18615 	0.97870 	0.97715 	1.00035 	1.01780 	0.75575 	0.77610 	0.97060 	0.90225 	0.71260 	0.64605 	0.72720 	0.73810 	0.63120 	0.46140 	0.59960 	0.52750 	0.47895 	0.17120 	0.24460 	0.23680 	-0.05345 	-0.29215 
1.09025 	1.16230 	1.09215 	1.15610 	1.12345 	0.93935 	0.92490 	0.93840 	0.93705 	0.71635 	0.70700 	0.91510 	0.83960 	0.64085 	0.56840 	0.65220 	0.66645 	0.57390 	0.38235 	0.52325 	0.46790 	0.41810 	0.11150 	0.19270 	0.20385 	-0.07430 	-0.30645 
1.05475 	1.11190 	1.05065 	1.11705 	1.06085 	0.90055 	0.87745 	0.88105 	0.85920 	0.67800 	0.64100 	0.86185 	0.77650 	0.55995 	0.49045 	0.57655 	0.59540 	0.50800 	0.30265 	0.44530 	0.40715 	0.35500 	0.05165 	0.13980 	0.17140 	-0.09585 	-0.31855 
1.02405 	1.07160 	1.01585 	1.08210 	0.99950 	0.86340 	0.83580 	0.82905 	0.78590 	0.64175 	0.57940 	0.81180 	0.71425 	0.47355 	0.41380 	0.50150 	0.52550 	0.43675 	0.22400 	0.36725 	0.34585 	0.29150 	-0.00700 	0.08700 	0.14005 	-0.11725 	-0.32705 
0.99940 	1.04450 	0.98915 	1.05220 	0.94105 	0.82865 	0.80130 	0.78350 	0.71920 	0.60855 	0.52370 	0.76600 	0.65430 	0.38595 	0.34025 	0.42840 	0.45765 	0.36410 	0.14845 	0.29100 	0.28495 	0.22945 	-0.06285 	0.03580 	0.11070 	-0.13725 	-0.33035 
0.98220 	1.03260 	0.97180 	1.02830 	0.88780 	0.79680 	0.77515 	0.74560 	0.66170 	0.57920 	0.47530 	0.72570 	0.59830 	0.30160 	0.27155 	0.35870 	0.39280 	0.29370 	0.07795 	0.21840 	0.22560 	0.17090 	-0.11415 	-0.01220 	0.08420 	-0.15425 	-0.32695 
0.97330 	1.03685 	0.96475 	1.01170 	0.84240 	0.76815 	0.75840 	0.71675 	0.61595 	0.55450 	0.43585 	0.69225 	0.54795 	0.22430 	0.20945 	0.29395 	0.33215 	0.22880 	0.01450 	0.15130 	0.16905 	0.11785 	-0.15925 	-0.05545 	0.06135 	-0.16675 	-0.31535 
0.97295 	1.05700 	0.96820 	1.00320 	0.80695 	0.74270 	0.75175 	0.69805 	0.58405 	0.53485 	0.40635 	0.66655 	0.50470 	0.15700 	0.15520 	0.23545 	0.27665 	0.17145 	-0.04045 	0.09125 	0.11650 	0.07185 	-0.19690 	-0.09275 	0.04280 	-0.17350 	-0.29460 
0.98050 	1.09110 	0.98165 	1.00300 	0.78310 	0.72030 	0.75495 	0.68975 	0.56685 	0.52040 	0.38720 	0.64895 	0.46940 	0.10115 	0.10970 	0.18400 	0.22700 	0.12300 	-0.08590 	0.03910 	0.06890 	0.03395 	-0.22625 	-0.12340 	0.02870 	-0.17370 	-0.26420 
0.99445 	1.13560 	1.00345 	1.01020 	0.77110 	0.70025 	0.76690 	0.69115 	0.56370 	0.51045 	0.37780 	0.63885 	0.44205 	0.05695 	0.07295 	0.13985 	0.18330 	0.08375 	-0.12180 	-0.00495 	0.02655 	0.00425 	-0.24700 	-0.14715 	0.01860 	-0.16680 	-0.22435 
1.01250 	1.18590 	1.03100 	1.02290 	0.77000 	0.68145 	0.78545 	0.70000 	0.57230 	0.50385 	0.37685 	0.63440 	0.42185 	0.02370 	0.04425 	0.10240 	0.14510 	0.05375 	-0.14885 	-0.04155 	-0.01095 	-0.01795 	-0.25965 	-0.16450 	0.01175 	-0.15325 	-0.17595 
1.03175 	1.23630 	1.06095 	1.03830 	0.77770 	0.66285 	0.80780 	0.71335 	0.58940 	0.49850 	0.38205 	0.63330 	0.40710 	0.00020 	0.02225 	0.07055 	0.11120 	0.03285 	-0.16825 	-0.07165 	-0.04445 	-0.03405 	-0.26500 	-0.17625 	0.00715 	-0.13345 	-0.12030 
1.04900 	1.28095 	1.08970 	1.05315 	0.79130 	0.64325 	0.83055 	0.72765 	0.61110 	0.49175 	0.39105 	0.63250 	0.39555 	-0.01450 	0.00550 	0.04285 	0.08030 	0.02065 	-0.18165 	-0.09690 	-0.07510 	-0.04590 	-0.26410 	-0.18340 	0.00350 	-0.10835 	-0.05900 
1.06145 	1.31480 	1.11400 	1.06430 	0.80775 	0.62160 	0.85055 	0.73955 	0.63360 	0.48110 	0.40125 	0.62920 	0.38475 	-0.02105 	-0.00775 	0.01775 	0.05105 	0.01700 	-0.19070 	-0.11865 	-0.10395 	-0.05515 	-0.25830 	-0.18705 	-0.00010 	-0.07885 	0.00585 
1.06660 	1.33360 	1.13100 	1.06905 	0.82420 	0.59755 	0.86510 	0.74605 	0.65385 	0.46445 	0.41065 	0.62105 	0.37285 	-0.01980 	-0.01865 	-0.00590 	0.02235 	0.02145 	-0.19670 	-0.13800 	-0.13190 	-0.06335 	-0.24865 	-0.18815 	-0.00445 	-0.04595 	0.07260 
1.06280 	1.33480 	1.13865 	1.06565 	0.83810 	0.57090 	0.87205 	0.74520 	0.66960 	0.44055 	0.41755 	0.60635 	0.35840 	-0.01080 	-0.02820 	-0.02900 	-0.00605 	0.03320 	-0.20065 	-0.15585 	-0.15900 	-0.07170 	-0.23595 	-0.18720 	-0.00990 	-0.01050 	0.13915 
1.04905 	1.31730 	1.13580 	1.05295 	0.84770 	0.54215 	0.87005 	0.73590 	0.67960 	0.40875 	0.42095 	0.58420 	0.34090 	0.00565 	-0.03690 	-0.05185 	-0.03425 	0.05060 	-0.20315 	-0.17250 	-0.18530 	-0.08085 	-0.22095 	-0.18490 	-0.01675 	0.02645 	0.20395 
1.02520 	1.28160 	1.12175 	1.03055 	0.85175 	0.51190 	0.85850 	0.71790 	0.68340 	0.36925 	0.42030 	0.55435 	0.32075 	0.02865 	-0.04505 	-0.07450 	-0.06185 	0.07145 	-0.20465 	-0.18810 	-0.21025 	-0.09135 	-0.20420 	-0.18155 	-0.02490 	0.06390 	0.26525 
0.99185 	1.22935 	1.09685 	0.99865 	0.84930 	0.48100 	0.83730 	0.69170 	0.68080 	0.32250 	0.41550 	0.51730 	0.29900 	0.05660 	-0.05260 	-0.09665 	-0.08820 	0.09250 	-0.20510 	-0.20250 	-0.23350 	-0.10355 	-0.18620 	-0.17745 	-0.03450 	0.10085 	0.32180 
0.94985 	1.16330 	1.06155 	0.95790 	0.83960 	0.45015 	0.80705 	0.65820 	0.67200 	0.26950 	0.40655 	0.47420 	0.27675 	0.08725 	-0.05950 	-0.11785 	-0.11295 	0.11030 	-0.20450 	-0.21570 	-0.25440 	-0.11755 	-0.16700 	-0.17285 	-0.04545 	0.13635 	0.37250 
0.90075 	1.08680 	1.01695 	0.90905 	0.82205 	0.41980 	0.76835 	0.61870 	0.65715 	0.21170 	0.39400 	0.42650 	0.25530 	0.11810 	-0.06560 	-0.13765 	-0.13555 	0.12170 	-0.20285 	-0.22745 	-0.27265 	-0.13335 	-0.14700 	-0.16780 	-0.05740 	0.16975 	0.41660 
0.84610 	1.00360 	0.96425 	0.85330 	0.79640 	0.39015 	0.72225 	0.57455 	0.63665 	0.15085 	0.37820 	0.37595 	0.23570 	0.14700 	-0.07050 	-0.15530 	-0.15590 	0.12425 	-0.19975 	-0.23750 	-0.28805 	-0.15065 	-0.12600 	-0.16225 	-0.07005 	0.20065 	0.45365 
0.78740 	0.91725 	0.90480 	0.79160 	0.76255 	0.36080 	0.67005 	0.52705 	0.61115 	0.08855 	0.35965 	0.32435 	0.21850 	0.17200 	-0.07395 	-0.17020 	-0.17395 	0.11635 	-0.19505 	-0.24550 	-0.30035 	-0.16885 	-0.10405 	-0.15585 	-0.08285 	0.22875 	0.48355 
0.72615 	0.83110 	0.83995 	0.72515 	0.72080 	0.33140 	0.61295 	0.47740 	0.58150 	0.02625 	0.33905 	0.27310 	0.20370 	0.19170 	-0.07570 	-0.18170 	-0.18980 	0.09780 	-0.18850 	-0.25130 	-0.30950 	-0.18745 	-0.08110 	-0.14825 	-0.09530 	0.25400 	0.50610 
0.66340 	0.74770 	0.77100 	0.65495 	0.67150 	0.30135 	0.55215 	0.42635 	0.54870 	-0.03490 	0.31665 	0.22340 	0.19050 	0.20485 	-0.07560 	-0.18950 	-0.20360 	0.06905 	-0.17995 	-0.25460 	-0.31555 	-0.20560 	-0.05715 	-0.13925 	-0.10700 	0.27625 	0.52115 
0.60005 	0.66870 	0.69920 	0.58205 	0.61535 	0.27025 	0.48880 	0.37450 	0.51365 	-0.09385 	0.29300 	0.17595 	0.17795 	0.21055 	-0.07345 	-0.19325 	-0.21560 	0.03110 	-0.16930 	-0.25530 	-0.31855 	-0.22290 	-0.03235 	-0.12870 	-0.11765 	0.29530 	0.52880 
0.53660 	0.59490 	0.62530 	0.50700 	0.55305 	0.23770 	0.42375 	0.32220 	0.47710 	-0.14920 	0.26815 	0.13100 	0.16470 	0.20810 	-0.06940 	-0.19295 	-0.22590 	-0.01430 	-0.15660 	-0.25320 	-0.31850 	-0.23880 	-0.00685 	-0.11635 	-0.12695 	0.31120 	0.52930 
0.47345 	0.52625 	0.55020 	0.43040 	0.48530 	0.20345 	0.35785 	0.26965 	0.43925 	-0.19955 	0.24245 	0.08855 	0.14955 	0.19710 	-0.06360 	-0.18875 	-0.23480 	-0.06540 	-0.14175 	-0.24835 	-0.31545 	-0.25295 	0.01915 	-0.10235 	-0.13470 	0.32405 	0.52325 
0.41055 	0.46150 	0.47405 	0.35275 	0.41255 	0.16715 	0.29160 	0.21715 	0.39960 	-0.24325 	0.21585 	0.04860 	0.13155 	0.17740 	-0.05635 	-0.18110 	-0.24255 	-0.11985 	-0.12505 	-0.24080 	-0.30950 	-0.26535 	0.04530 	-0.08665 	-0.14090 	0.33415 	0.51145 
0.34770 	0.39875 	0.39700 	0.27400 	0.33500 	0.12805 	0.22525 	0.16460 	0.35675 	-0.27935 	0.18820 	0.01080 	0.10985 	0.14895 	-0.04825 	-0.17080 	-0.24955 	-0.17555 	-0.10685 	-0.23090 	-0.30105 	-0.27615 	0.07115 	-0.06965 	-0.14565 	0.34160 	0.49500 
0.28440 	0.33550 	0.31850 	0.19400 	0.25240 	0.08520 	0.15895 	0.11205 	0.30885 	-0.30770 	0.15920 	-0.02505 	0.08395 	0.11200 	-0.04010 	-0.15875 	-0.25660 	-0.23005 	-0.08785 	-0.21935 	-0.29080 	-0.28560 	0.09600 	-0.05170 	-0.14940 	0.34655 	0.47460 
0.21990 	0.26890 	0.23810 	0.11255 	0.16455 	0.03740 	0.09255 	0.05950 	0.25380 	-0.32915 	0.12850 	-0.05900 	0.05350 	0.06695 	-0.03285 	-0.14620 	-0.26440 	-0.28125 	-0.06880 	-0.20700 	-0.27990 	-0.29415 	0.11930 	-0.03350 	-0.15300 	0.34900 	0.45110 
0.15380 	0.19650 	0.15530 	0.02945 	0.07130 	-0.01650 	0.02630 	0.00740 	0.19025 	-0.34555 	0.09595 	-0.09080 	0.01845 	0.01460 	-0.02715 	-0.13400 	-0.27350 	-0.32715 	-0.05050 	-0.19475 	-0.26910 	-0.30210 	0.14040 	-0.01565 	-0.15690 	0.34930 	0.42550 
0.08560 	0.11640 	0.06990 	-0.05510 	-0.02715 	-0.07730 	-0.03960 	-0.04385 	0.11760 	-0.35960 	0.06150 	-0.12015 	-0.02065 	-0.04400 	-0.02345 	-0.12295 	-0.28410 	-0.36615 	-0.03345 	-0.18310 	-0.25920 	-0.30965 	0.15915 	0.00180 	-0.16140 	0.34810 	0.39895 
0.01515 	0.02760 	-0.01765 	-0.14090 	-0.13010 	-0.14510 	-0.10450 	-0.09360 	0.03650 	-0.37425 	0.02560 	-0.14650 	-0.06305 	-0.10740 	-0.02175 	-0.11320 	-0.29605 	-0.39690 	-0.01775 	-0.17220 	-0.25030 	-0.31630 	0.17585 	0.01890 	-0.16625 	0.34620 	0.37290 
-0.05755 	-0.06980 	-0.10675 	-0.22735 	-0.23655 	-0.21945 	-0.16775 	-0.14140 	-0.05160 	-0.39185 	-0.01135 	-0.16965 	-0.10785 	-0.17390 	-0.02190 	-0.10495 	-0.30885 	-0.41870 	-0.00325 	-0.16205 	-0.24225 	-0.32150 	0.19085 	0.03590 	-0.17100 	0.34465 	0.34865 
-0.13245 	-0.17500 	-0.19675 	-0.31380 	-0.34535 	-0.29900 	-0.22865 	-0.18705 	-0.14465 	-0.41425 	-0.04885 	-0.18980 	-0.15450 	-0.24205 	-0.02345 	-0.09830 	-0.32215 	-0.43145 	0.01010 	-0.15240 	-0.23475 	-0.32480 	0.20465 	0.05285 	-0.17495 	0.34400 	0.32700 
-0.20965 	-0.28650 	-0.28670 	-0.39965 	-0.45470 	-0.38205 	-0.28685 	-0.23070 	-0.24040 	-0.44205 	-0.08680 	-0.20790 	-0.20235 	-0.31060 	-0.02645 	-0.09345 	-0.33560 	-0.43605 	0.02255 	-0.14315 	-0.22755 	-0.32605 	0.21745 	0.06985 	-0.17770 	0.34440 	0.30825 
-0.28915 	-0.40220 	-0.37585 	-0.48405 	-0.56285 	-0.46665 	-0.34210 	-0.27280 	-0.33635 	-0.47520 	-0.12520 	-0.22525 	-0.25140 	-0.37820 	-0.03090 	-0.09075 	-0.34910 	-0.43395 	0.03385 	-0.13450 	-0.22065 	-0.32535 	0.22900 	0.08620 	-0.17900 	0.34555 	0.29205 
-0.37095 	-0.51945 	-0.46350 	-0.56610 	-0.66725 	-0.55085 	-0.39450 	-0.31400 	-0.43020 	-0.51305 	-0.16410 	-0.24330 	-0.30155 	-0.44375 	-0.03700 	-0.09090 	-0.36270 	-0.42710 	0.04370 	-0.12675 	-0.21435 	-0.32315 	0.23885 	0.10125 	-0.17900 	0.34645 	0.27750 
-0.45495 	-0.63555 	-0.54890 	-0.64490 	-0.76585 	-0.63325 	-0.44425 	-0.35505 	-0.51995 	-0.55455 	-0.20400 	-0.26385 	-0.35295 	-0.50585 	-0.04530 	-0.09455 	-0.37645 	-0.41780 	0.05150 	-0.12035 	-0.20910 	-0.32045 	0.24615 	0.11390 	-0.17825 	0.34610 	0.26360 
-0.54075 	-0.74770 	-0.63170 	-0.71980 	-0.85655 	-0.71260 	-0.49190 	-0.39685 	-0.60405 	-0.59890 	-0.24520 	-0.28845 	-0.40565 	-0.56320 	-0.05635 	-0.10240 	-0.39090 	-0.40845 	0.05650 	-0.11605 	-0.20560 	-0.31820 	0.24990 	0.12310 	-0.17725 	0.34300 	0.24905 
-0.62800 	-0.85335 	-0.71175 	-0.79065 	-0.93800 	-0.78820 	-0.53830 	-0.44055 	-0.68180 	-0.64515 	-0.28835 	-0.31855 	-0.45990 	-0.61460 	-0.07090 	-0.11540 	-0.40655 	-0.40135 	0.05775 	-0.11465 	-0.20460 	-0.31755 	0.24885 	0.12780 	-0.17685 	0.33585 	0.23255 
-0.71615 	-0.95045 	-0.78910 	-0.85750 	-1.00960 	-0.85975 	-0.58435 	-0.48745 	-0.75290 	-0.69260 	-0.33405 	-0.35540 	-0.51585 	-0.65925 	-0.08975 	-0.13410 	-0.42390 	-0.39870 	0.05435 	-0.11705 	-0.20695 	-0.31960 	0.24195 	0.12680 	-0.17795 	0.32335 	0.21305 
-0.80455 	-1.03775 	-0.86390 	-0.92100 	-1.07165 	-0.92720 	-0.63115 	-0.53850 	-0.81765 	-0.74045 	-0.38285 	-0.39985 	-0.57355 	-0.69695 	-0.11365 	-0.15905 	-0.44370 	-0.40230 	0.04535 	-0.12400 	-0.21325 	-0.32515 	0.22840 	0.11945 	-0.18140 	0.30450 	0.18970 
-0.89250 	-1.11450 	-0.93645 	-0.98180 	-1.12485 	-0.99055 	-0.67945 	-0.59470 	-0.87635 	-0.78785 	-0.43495 	-0.45220 	-0.63295 	-0.72790 	-0.14290 	-0.19030 	-0.46625 	-0.41325 	0.03035 	-0.13595 	-0.22380 	-0.33455 	0.20775 	0.10535 	-0.18760 	0.27905 	0.16245 
-0.97930 	-1.18075 	-1.00690 	-1.04050 	-1.17015 	-1.04955 	-0.72985 	-0.65615 	-0.92920 	-0.83370 	-0.49030 	-0.51225 	-0.69350 	-0.75270 	-0.17745 	-0.22735 	-0.49140 	-0.43225 	0.00930 	-0.15295 	-0.23830 	-0.34745 	0.18015 	0.08475 	-0.19665 	0.24715 	0.13180 
-1.06390 	-1.23710 	-1.07545 	-1.09760 	-1.20875 	-1.10410 	-0.78255 	-0.72265 	-0.97685 	-0.87690 	-0.54845 	-0.57900 	-0.75460 	-0.77215 	-0.21680 	-0.26950 	-0.51890 	-0.45875 	-0.01740 	-0.17465 	-0.25630 	-0.36315 	0.14650 	0.05835 	-0.20815 	0.20975 	0.09885 
-1.14575 	-1.28515 	-1.14220 	-1.15355 	-1.24180 	-1.15425 	-0.83750 	-0.79355 	-1.01975 	-0.91620 	-0.60875 	-0.65125 	-0.81525 	-0.78695 	-0.26035 	-0.31560 	-0.54800 	-0.49190 	-0.04910 	-0.20045 	-0.27685 	-0.38045 	0.10785 	0.02740 	-0.22150 	0.16825 	0.06510 
-1.22410 	-1.32690 	-1.20740 	-1.20865 	-1.27060 	-1.20015 	-0.89470 	-0.86785 	-1.05890 	-0.95040 	-0.67050 	-0.72740 	-0.87445 	-0.79740 	-0.30720 	-0.36465 	-0.57810 	-0.52965 	-0.08490 	-0.22965 	-0.29900 	-0.39790 	0.06540 	-0.00700 	-0.23580 	0.12380 	0.03175 
-1.29865 	-1.36495 	-1.27145 	-1.26340 	-1.29675 	-1.24235 	-0.95395 	-0.94445 	-1.09590 	-0.97855 	-0.73315 	-0.80590 	-0.93120 	-0.80370 	-0.35685 	-0.41585 	-0.60875 	-0.56980 	-0.12425 	-0.26170 	-0.32220 	-0.41435 	0.02025 	-0.04385 	-0.25060 	0.07765 	-0.00020 
-1.36945 	-1.40230 	-1.33510 	-1.31845 	-1.32215 	-1.28120 	-1.01555 	-1.02275 	-1.13245 	-0.99970 	-0.79655 	-0.88580 	-0.98480 	-0.80575 	-0.40885 	-0.46870 	-0.63960 	-0.61000 	-0.16675 	-0.29645 	-0.34610 	-0.42900 	-0.02700 	-0.08240 	-0.26540 	0.03050 	-0.03000 
-1.43670 	-1.44210 	-1.39935 	-1.37470 	-1.34885 	-1.31670 	-1.07975 	-1.10240 	-1.17080 	-1.01340 	-0.86065 	-0.96665 	-1.03460 	-0.80340 	-0.46315 	-0.52325 	-0.67080 	-0.64805 	-0.21230 	-0.33385 	-0.37080 	-0.44140 	-0.07595 	-0.12240 	-0.28025 	-0.01730 	-0.05750 
-1.50075 	-1.48700 	-1.46505 	-1.43320 	-1.37885 	-1.34820 	-1.14715 	-1.18355 	-1.21250 	-1.01960 	-0.92590 	-1.04835 	-1.08035 	-0.79650 	-0.51990 	-0.57970 	-0.70225 	-0.68225 	-0.26090 	-0.37425 	-0.39650 	-0.45140 	-0.12635 	-0.16370 	-0.29515 	-0.06565 	-0.08275 
-1.56165 	-1.53900 	-1.53290 	-1.49470 	-1.41370 	-1.37480 	-1.21785 	-1.26615 	-1.25890 	-1.01870 	-0.99250 	-1.13080 	-1.12185 	-0.78535 	-0.57895 	-0.63795 	-0.73390 	-0.71115 	-0.31240 	-0.41755 	-0.42325 	-0.45915 	-0.17805 	-0.20600 	-0.31025 	-0.11450 	-0.10600 
-1.61945 	-1.59900 	-1.60310 	-1.55930 	-1.45410 	-1.39520 	-1.29160 	-1.34990 	-1.31040 	-1.01170 	-1.06015 	-1.21345 	-1.15900 	-0.77020 	-0.63995 	-0.69765 	-0.76500 	-0.73405 	-0.36640 	-0.46330 	-0.45075 	-0.46460 	-0.23065 	-0.24910 	-0.32540 	-0.16355 	-0.12740 
-1.67375 	-1.66655 	-1.67520 	-1.62665 	-1.50005 	-1.40865 	-1.36760 	-1.43365 	-1.36660 	-1.00040 	-1.12825 	-1.29515 	-1.19165 	-0.75180 	-0.70205 	-0.75785 	-0.79460 	-0.75020 	-0.42215 	-0.51070 	-0.47835 	-0.46765 	-0.28335 	-0.29210 	-0.34015 	-0.21235 	-0.14705 
-1.72390 	-1.74035 	-1.74810 	-1.69565 	-1.55080 	-1.41515 	-1.44455 	-1.51590 	-1.42665 	-0.98725 	-1.19560 	-1.37410 	-1.21985 	-0.73095 	-0.76415 	-0.81720 	-0.82140 	-0.75925 	-0.47860 	-0.55860 	-0.50505 	-0.46790 	-0.33535 	-0.33425 	-0.35390 	-0.26015 	-0.16495 
-1.76905 	-1.81780 	-1.82045 	-1.76480 	-1.60505 	-1.41530 	-1.52085 	-1.59480 	-1.48915 	-0.97510 	-1.26100 	-1.44840 	-1.24365 	-0.70870 	-0.82485 	-0.87425 	-0.84430 	-0.76090 	-0.53460 	-0.60575 	-0.52985 	-0.46470 	-0.38555 	-0.37455 	-0.36590 	-0.30605 	-0.18095 
-1.80845 	-1.89580 	-1.89060 	-1.83250 	-1.66115 	-1.41045 	-1.59485 	-1.66850 	-1.55250 	-0.96635 	-1.32310 	-1.51595 	-1.26345 	-0.68595 	-0.88285 	-0.92770 	-0.86260 	-0.75505 	-0.58890 	-0.65090 	-0.55210 	-0.45745 	-0.43305 	-0.41220 	-0.37560 	-0.34915 	-0.19485 
-1.84155 	-1.97100 	-1.95705 	-1.89700 	-1.71715 	-1.40180 	-1.66505 	-1.73545 	-1.61465 	-0.96290 	-1.38090 	-1.57520 	-1.27950 	-0.66370 	-0.93720 	-0.97660 	-0.87635 	-0.74175 	-0.64085 	-0.69320 	-0.57145 	-0.44565 	-0.47720 	-0.44645 	-0.38275 	-0.38880 	-0.20655 
-1.86780 	-2.03995 	-2.01830 	-1.95675 	-1.77075 	-1.39035 	-1.73015 	-1.79465 	-1.67305 	-0.96570 	-1.43375 	-1.62540 	-1.29210 	-0.64295 	-0.98720 	-1.02045 	-0.88610 	-0.72100 	-0.68985 	-0.73210 	-0.58810 	-0.42905 	-0.51750 	-0.47720 	-0.38735 	-0.42440 	-0.21630 
-1.88695 	-2.09945 	-2.07325 	-2.01025 	-1.81960 	-1.37670 	-1.78930 	-1.84540 	-1.72465 	-0.97460 	-1.48145 	-1.66630 	-1.30125 	-0.62460 	-1.03275 	-1.05950 	-0.89300 	-0.69325 	-0.73570 	-0.76755 	-0.60245 	-0.40790 	-0.55400 	-0.50455 	-0.38975 	-0.45585 	-0.22435 
-1.89900 	-2.14690 	-2.12100 	-2.05620 	-1.86140 	-1.36095 	-1.84190 	-1.88725 	-1.76680 	-0.98880 	-1.52405 	-1.69825 	-1.30675 	-0.60975 	-1.07375 	-1.09400 	-0.89845 	-0.65910 	-0.77860 	-0.79975 	-0.61540 	-0.38305 	-0.58690 	-0.52890 	-0.39080 	-0.48345 	-0.23150 
-1.90390 	-2.18030 	-2.16060 	-2.09360 	-1.89410 	-1.34300 	-1.88735 	-1.91990 	-1.79690 	-1.00705 	-1.56175 	-1.72175 	-1.30855 	-0.59945 	-1.11055 	-1.12470 	-0.90355 	-0.61935 	-0.81865 	-0.82895 	-0.62775 	-0.35560 	-0.61690 	-0.55085 	-0.39130 	-0.50765 	-0.23865 
-1.90165 	-2.19865 	-2.19150 	-2.12135 	-1.91645 	-1.32290 	-1.92525 	-1.94300 	-1.81320 	-1.02770 	-1.59440 	-1.73725 	-1.30645 	-0.59430 	-1.14325 	-1.15200 	-0.90910 	-0.57500 	-0.85595 	-0.85540 	-0.64025 	-0.32710 	-0.64425 	-0.57095 	-0.39210 	-0.52895 	-0.24640 
-1.89225 	-2.20115 	-2.21275 	-2.13855 	-1.92735 	-1.30010 	-1.95495 	-1.95585 	-1.81490 	-1.04895 	-1.62185 	-1.74485 	-1.30045 	-0.59470 	-1.17160 	-1.17585 	-0.91540 	-0.52725 	-0.89035 	-0.87895 	-0.65315 	-0.29890 	-0.66935 	-0.58950 	-0.39360 	-0.54775 	-0.25495 
-1.87540 	-2.18820 	-2.22360 	-2.14440 	-1.92635 	-1.27435 	-1.97550 	-1.95775 	-1.80155 	-1.06885 	-1.64340 	-1.74450 	-1.29035 	-0.60015 	-1.19510 	-1.19585 	-0.92215 	-0.47725 	-0.92125 	-0.89910 	-0.66615 	-0.27230 	-0.69205 	-0.60635 	-0.39580 	-0.56395 	-0.26420 
-1.85100 	-2.16045 	-2.22325 	-2.13795 	-1.91345 	-1.24505 	-1.98595 	-1.94780 	-1.77350 	-1.08530 	-1.65810 	-1.73580 	-1.27550 	-0.60980 	-1.21275 	-1.21110 	-0.92835 	-0.42640 	-0.94765 	-0.91495 	-0.67850 	-0.24805 	-0.71195 	-0.62085 	-0.39815 	-0.57735 	-0.27355 
-1.81880 	-2.11950 	-2.21115 	-2.11885 	-1.88895 	-1.21175 	-1.98530 	-1.92530 	-1.73145 	-1.09650 	-1.66490 	-1.71825 	-1.25490 	-0.62240 	-1.22350 	-1.22060 	-0.93295 	-0.37620 	-0.96845 	-0.92545 	-0.68915 	-0.22670 	-0.72835 	-0.63235 	-0.39995 	-0.58760 	-0.28225 
-1.77905 	-2.06730 	-2.18700 	-2.08675 	-1.85360 	-1.17395 	-1.97290 	-1.88965 	-1.67690 	-1.10110 	-1.66290 	-1.69130 	-1.22735 	-0.63670 	-1.22625 	-1.22315 	-0.93455 	-0.32830 	-0.98250 	-0.92950 	-0.69690 	-0.20835 	-0.74055 	-0.64005 	-0.40035 	-0.59420 	-0.28975 
-1.73215 	-2.00655 	-2.15105 	-2.04200 	-1.80840 	-1.13160 	-1.94830 	-1.84075 	-1.61155 	-1.09815 	-1.65155 	-1.65480 	-1.19185 	-0.65205 	-1.22030 	-1.21770 	-0.93190 	-0.28445 	-0.98900 	-0.92630 	-0.70065 	-0.19290 	-0.74810 	-0.64335 	-0.39870 	-0.59705 	-0.29570 
-1.67885 	-1.93985 	-2.10410 	-1.98530 	-1.75445 	-1.08475 	-1.91175 	-1.77895 	-1.53790 	-1.08735 	-1.63045 	-1.60855 	-1.14780 	-0.66800 	-1.20505 	-1.20365 	-0.92360 	-0.24630 	-0.98720 	-0.91540 	-0.69955 	-0.18010 	-0.75060 	-0.64190 	-0.39465 	-0.59615 	-0.30005 
-1.62000 	-1.86980 	-2.04690 	-1.91760 	-1.69325 	-1.03365 	-1.86350 	-1.70510 	-1.45815 	-1.06890 	-1.59960 	-1.55250 	-1.09500 	-0.68440 	-1.18020 	-1.18025 	-0.90860 	-0.21515 	-0.97665 	-0.89615 	-0.69275 	-0.16945 	-0.74790 	-0.63540 	-0.38775 	-0.59140 	-0.30265 
-1.55615 	-1.79835 	-1.98050 	-1.84010 	-1.62590 	-0.97825 	-1.80410 	-1.62045 	-1.37445 	-1.04260 	-1.55895 	-1.48680 	-1.03380 	-0.70100 	-1.14555 	-1.14690 	-0.88560 	-0.19185 	-0.95695 	-0.86855 	-0.67940 	-0.16010 	-0.73950 	-0.62355 	-0.37775 	-0.58265 	-0.30315 
-1.48755 	-1.72650 	-1.90540 	-1.75370 	-1.55325 	-0.91835 	-1.73375 	-1.52615 	-1.28840 	-1.00805 	-1.50835 	-1.41125 	-0.96460 	-0.71715 	-1.10065 	-1.10285 	-0.85315 	-0.17630 	-0.92745 	-0.83175 	-0.65840 	-0.15065 	-0.72475 	-0.60565 	-0.36395 	-0.56925 	-0.30055 
-1.41375 	-1.65390 	-1.82180 	-1.65885 	-1.47545 	-0.85325 	-1.65235 	-1.42315 	-1.20035 	-0.96420 	-1.44720 	-1.32550 	-0.88760 	-0.73145 	-1.04475 	-1.04690 	-0.80970 	-0.16790 	-0.88725 	-0.78480 	-0.62830 	-0.13950 	-0.70240 	-0.58045 	-0.34505 	-0.54985 	-0.29335 
-1.33355 	-1.57895 	-1.72895 	-1.55535 	-1.39185 	-0.78190 	-1.55940 	-1.31190 	-1.10990 	-0.90965 	-1.37435 	-1.22880 	-0.80285 	-0.74200 	-0.97660 	-0.97765 	-0.75370 	-0.16540 	-0.83475 	-0.72650 	-0.58740 	-0.12430 	-0.67080 	-0.54630 	-0.31930 	-0.52260 	-0.27925 
-1.24505 	-1.49880 	-1.62540 	-1.44240 	-1.30085 	-0.70285 	-1.45365 	-1.19200 	-1.01520 	-0.84250 	-1.28815 	-1.11990 	-0.70930 	-0.74600 	-0.89450 	-0.89325 	-0.68345 	-0.16655 	-0.76830 	-0.65495 	-0.53375 	-0.10260 	-0.62775 	-0.50110 	-0.28430 	-0.48505 	-0.25555 
-1.14590 	-1.40930 	-1.50915 	-1.31825 	-1.19985 	-0.61440 	-1.33345 	-1.06220 	-0.91350 	-0.76120 	-1.18660 	-0.99720 	-0.60510 	-0.73990 	-0.79665 	-0.79195 	-0.59720 	-0.16870 	-0.68590 	-0.56820 	-0.46525 	-0.07165 	-0.57095 	-0.44235 	-0.23720 	-0.43455 	-0.21945 
-1.03365 	-1.30600 	-1.37795 	-1.18085 	-1.08570 	-0.51475 	-1.19685 	-0.92080 	-0.80140 	-0.66420 	-1.06740 	-0.85895 	-0.48755 	-0.71990 	-0.68090 	-0.67195 	-0.49360 	-0.16850 	-0.58540 	-0.46420 	-0.38000 	-0.02855 	-0.49785 	-0.36775 	-0.17505 	-0.36820 	-0.16810 
-0.90575 	-1.18420 	-1.22940 	-1.02805 	-0.95515 	-0.40210 	-1.04205 	-0.76575 	-0.67545 	-0.55030 	-0.92860 	-0.70355 	-0.35390 	-0.68175 	-0.54550 	-0.53180 	-0.37135 	-0.16230 	-0.46500 	-0.34120 	-0.27615 	0.02965 	-0.40615 	-0.27495 	-0.09490 	-0.28355 	-0.09885 
-0.75990 	-1.03975 	-1.06160 	-0.85810 	-0.80545 	-0.27485 	-0.86755 	-0.59550 	-0.53290 	-0.41805 	-0.76855 	-0.52975 	-0.20145 	-0.62155 	-0.38895 	-0.37035 	-0.22950 	-0.14605 	-0.32315 	-0.19760 	-0.15205 	0.10580 	-0.29380 	-0.16210 	0.00585 	-0.17820 	-0.00930 
-0.59420 	-0.86915 	-0.87300 	-0.66965 	-0.63440 	-0.13125 	-0.67240 	-0.40915 	-0.37155 	-0.26615 	-0.58625 	-0.33690 	-0.02830 	-0.53535 	-0.21000 	-0.18690 	-0.06740 	-0.11540 	-0.15860 	-0.03240 	-0.00645 	0.20265 	-0.15890 	-0.02750 	0.12945 	-0.05035 	0.10255 
-0.40700 	-0.67005 	-0.66265 	-0.46200 	-0.44055 	0.03060 	-0.45615 	-0.20630 	-0.18980 	-0.09285 	-0.38100 	-0.12490 	0.16685 	-0.41945 	-0.00805 	0.01905 	0.11540 	-0.06540 	0.02950 	0.15545 	0.16180 	0.32290 	0.00010 	0.13035 	0.27805 	0.10185 	0.23860 
-0.19725 	-0.44110 	-0.43025 	-0.23485 	-0.22315 	0.21235 	-0.21900 	0.01250 	0.01350 	0.10400 	-0.15295 	0.10565 	0.38430 	-0.27025 	0.21745 	0.24730 	0.31915 	0.00905 	0.24180 	0.36645 	0.35390 	0.46890 	0.18455 	0.31270 	0.45330 	0.27990 	0.40065 
0.03575 	-0.18245 	-0.17620 	0.01140 	0.01790 	0.41585 	0.03840 	0.24635 	0.23895 	0.32630 	0.09750 	0.35360 	0.62415 	-0.08385 	0.46650 	0.49760 	0.54395 	0.11340 	0.47865 	0.60105 	0.57065 	0.64285 	0.39565 	0.52060 	0.65680 	0.48510 	0.59010 
0.29190 	0.10450 	0.09860 	0.27595 	0.28175 	0.64225 	0.31475 	0.49370 	0.48660 	0.57580 	0.36930 	0.61715 	0.88555 	0.14310 	0.73845 	0.76910 	0.78945 	0.25270 	0.73975 	0.85910 	0.81250 	0.84635 	0.63380 	0.75475 	0.88935 	0.71860 	0.80820 
0.57025 	0.41675 	0.39230 	0.55720 	0.56650 	0.89225 	0.60805 	0.75235 	0.75545 	0.85325 	0.66060 	0.89370 	1.16680 	0.41335 	1.03205 	1.06015 	1.05485 	0.43075 	1.02425 	1.13985 	1.07915 	1.07995 	0.89900 	1.01550 	1.15145 	0.98075 	1.05575 
0.86880 	0.74975 	0.70185 	0.85220 	0.86890 	1.16565 	0.91515 	1.01905 	1.04355 	1.15820 	0.96860 	1.17960 	1.46530 	0.72810 	1.34475 	1.36790 	1.33810 	0.64935 	1.32985 	1.44110 	1.36890 	1.34300 	1.18980 	1.30165 	1.44210 	1.27095 	1.33230 
1.18420 	1.09720 	1.02310 	1.15680 	1.18385 	1.46085 	1.23175 	1.28975 	1.34730 	1.48885 	1.28900 	1.47010 	1.77710 	1.08630 	1.67250 	1.68835 	1.63615 	0.90755 	1.65300 	1.75930 	1.67865 	1.63290 	1.50330 	1.61070 	1.75860 	1.58680 	1.63585 
1.51165 	1.45160 	1.35050 	1.46550 	1.50480 	1.77495 	1.55245 	1.55895 	1.66145 	1.84180 	1.61630 	1.75925 	2.09710 	1.48400 	2.00975 	2.01580 	1.94405 	1.20115 	1.98820 	2.08890 	2.00310 	1.94480 	1.83450 	1.93800 	2.09620 	1.92405 	1.96245 
1.84445 	1.80385 	1.67705 	1.77105 	1.82360 	2.10295 	1.87020 	1.82015 	1.97915 	2.21210 	1.94305 	2.03985 	2.41840 	1.91390 	2.34885 	2.34280 	2.25485 	1.52220 	2.32800 	2.42260 	2.33480 	2.27135 	2.17615 	2.27640 	2.44725 	2.27575 	2.30525 
2.17425 	2.14330 	1.99415 	2.06470 	2.13045 	2.43770 	2.17630 	2.06500 	2.29185 	2.59250 	2.26025 	2.30310 	2.73255 	2.36495 	2.68030 	2.66000 	2.55940 	1.85955 	2.66265 	2.75030 	2.66365 	2.60215 	2.51820 	2.61610 	2.80125 	2.63200 	2.65455 
2.49010 	2.45800 	2.29120 	2.33590 	2.41385 	2.76860 	2.46020 	2.28350 	2.58855 	2.97285 	2.55650 	2.53830 	3.02880 	2.82265 	2.99210 	2.95575 	2.84600 	2.19840 	2.97995 	3.05975 	2.97680 	2.92380 	2.84790 	2.94415 	3.14440 	2.97990 	2.99730 
2.77880 	2.73445 	2.55590 	2.57230 	2.66070 	3.08215 	2.70920 	2.46400 	2.85625 	3.33990 	2.81855 	2.73305 	3.29410 	3.26890 	3.27010 	3.21605 	3.10065 	2.52130 	3.26515 	3.33605 	3.25870 	3.21995 	3.14970 	3.24465 	3.45990 	3.30315 	3.31735 
3.02520 	2.95805 	2.77405 	2.76020 	2.85685 	3.36205 	2.90930 	2.59335 	3.08045 	3.67750 	3.03115 	2.87330 	3.51340 	3.68315 	3.49795 	3.42505 	3.30725 	2.80850 	3.50150 	3.56225 	3.49170 	3.47180 	3.40545 	3.49925 	3.72825 	3.58290 	3.59585 
3.21315 	3.11445 	2.93100 	2.88575 	2.98855 	3.59035 	3.04560 	2.65835 	3.24575 	3.96720 	3.17855 	2.94470 	3.67065 	4.04345 	3.65880 	3.56635 	3.44915 	3.03915 	3.67120 	3.72055 	3.65720 	3.65930 	3.59575 	3.68810 	3.92865 	3.79870 	3.81230 
3.32730 	3.19065 	3.01305 	2.93635 	3.04340 	3.74990 	3.10455 	2.64720 	3.33800 	4.19040 	3.24595 	2.93440 	3.75030 	4.32805 	3.73645 	3.62435 	3.51060 	3.19300 	3.75715 	3.79395 	3.73755 	3.76300 	3.70185 	3.79215 	4.04070 	3.93040 	3.94655 
3.35535 	3.17755 	3.00975 	2.90290 	3.01280 	3.82640 	3.07575 	2.55160 	3.34630 	4.33055 	3.22190 	2.83310 	3.73995 	4.51815 	3.71825 	3.58695 	3.47890 	3.25270 	3.74565 	3.76880 	3.71860 	3.76665 	3.70810 	3.79515 	4.04730 	3.96085 	3.98130 
3.29035 	3.07205 	2.91645 	2.78225 	2.89415 	3.81125 	2.95470 	2.36975 	3.26560 	4.37550 	3.10095 	2.63800 	3.63295 	4.60000 	3.59745 	3.44805 	3.34775 	3.20685 	3.62890 	3.63750 	3.59235 	3.65965 	3.60490 	3.68700 	3.93735 	3.87870 	3.90495 
3.13340 	2.87905 	2.73650 	2.57920 	2.69270 	3.70360 	2.74530 	2.10805 	3.09890 	4.32035 	2.88605 	2.35515 	3.43100 	4.56745 	3.37590 	3.21035 	3.11910 	3.05215 	3.40760 	3.40125 	3.35960 	3.44025 	3.39105 	3.46625 	3.70870 	3.68140 	3.71450 
2.89455 	2.61220 	2.48210 	2.30735 	2.42220 	3.51140 	2.46035 	1.78205 	2.85765 	4.16870 	2.58930 	2.00005 	3.14510 	4.42350 	3.06515 	2.88595 	2.80460 	2.79540 	3.09250 	3.07090 	3.03115 	3.11655 	3.07570 	3.14175 	3.37005 	3.37655 	3.41690 
2.59205 	2.29310 	2.17385 	1.98835 	2.10395 	3.25085 	2.12095 	1.41555 	2.56120 	3.93255 	2.23190 	1.59725 	2.79490 	4.18020 	2.68595 	2.49635 	2.42505 	2.45245 	2.70350 	2.66685 	2.62720 	2.70650 	2.67770 	2.73240 	2.94030 	2.98190 	3.02915 
2.25000 	1.94805 	1.83755 	1.64860 	1.76405 	2.94395 	1.75405 	1.03735 	2.23380 	3.63045 	1.84085 	1.17675 	2.40590 	3.85705 	2.26535 	2.06920 	2.00730 	2.04670 	2.26725 	2.21620 	2.17480 	2.23550 	2.22315 	2.26435 	2.44655 	2.52290 	2.57595 
1.89455 	1.60460 	1.50050 	1.31585 	1.42910 	2.61480 	1.38765 	0.67730 	1.90080 	3.28440 	1.44500 	0.76990 	2.00530 	3.47780 	1.83295 	1.63445 	1.58090 	1.60480 	1.81335 	1.74875 	1.70400 	1.73285 	1.74175 	1.76785 	1.92015 	2.02905 	2.08600 
1.55000 	1.28685 	1.18745 	1.01465 	1.12290 	2.28575 	1.04740 	0.36175 	1.58480 	2.91595 	1.07100 	0.40500 	1.61855 	3.06690 	1.41640 	1.22030 	1.17360 	1.15310 	1.37005 	1.29305 	1.24355 	1.22735 	1.26265 	1.27230 	1.39205 	1.52975 	1.58810 
1.23550 	1.01280 	0.91715 	0.76330 	0.86270 	1.97455 	0.75295 	0.11055 	1.30290 	2.54340 	0.73995 	0.10375 	1.26550 	2.64635 	1.03825 	0.84945 	0.80805 	0.71470 	0.96075 	0.87280 	0.81740 	0.74400 	0.81060 	0.80315 	0.88950 	1.05065 	1.10740 
0.96350 	0.79275 	0.70100 	0.57245 	0.65870 	1.69250 	0.51640 	-0.06470 	1.06535 	2.18000 	0.46540 	-0.12035 	0.95910 	2.23385 	0.71390 	0.53755 	0.49970 	0.30730 	0.60205 	0.50485 	0.44290 	0.30160 	0.40410 	0.37935 	0.43315 	0.61140 	0.66340 
0.73955 	0.62885 	0.54250 	0.44495 	0.51335 	1.44425 	0.34200 	-0.16090 	0.87525 	1.83345 	0.25305 	-0.26255 	0.70510 	1.84215 	0.45120 	0.29235 	0.25650 	-0.05710 	0.30315 	0.19840 	0.12960 	-0.08800 	0.05445 	0.01265 	0.03625 	0.22475 	0.26875 
0.56325 	0.51690 	0.43870 	0.37680 	0.42300 	1.22930 	0.22710 	-0.18240 	0.73005 	1.50680 	0.10190 	-0.32565 	0.50285 	1.47905 	0.25090 	0.11470 	0.07915 	-0.37195 	0.06635 	-0.04410 	-0.11940 	-0.41920 	-0.23370 	-0.29195 	-0.29495 	-0.10350 	-0.06995 
0.42955 	0.44775 	0.38155 	0.35895 	0.37930 	1.04305 	0.16390 	-0.13935 	0.62300 	1.19985 	0.00530 	-0.31855 	0.34685 	1.14830 	0.10840 	-0.00020 	-0.03700 	-0.63475 	-0.11145 	-0.22560 	-0.30690 	-0.69200 	-0.46115 	-0.53505 	-0.56035 	-0.37260 	-0.35170 
0.33085 	0.40975 	0.35990 	0.37940 	0.37115 	0.87925 	0.14135 	-0.04540 	0.54495 	0.91075 	-0.04670 	-0.25425 	0.22885 	0.85065 	0.01535 	-0.06105 	-0.10085 	-0.84595 	-0.23705 	-0.35300 	-0.43935 	-0.90975 	-0.63255 	-0.72115 	-0.76385 	-0.58600 	-0.57910 
0.25835 	0.39020 	0.36140 	0.42475 	0.38690 	0.73120 	0.14650 	0.08345 	0.48610 	0.63715 	-0.06615 	-0.14805 	0.13920 	0.58470 	-0.03875 	-0.07890 	-0.12345 	-1.00810 	-0.31960 	-0.43565 	-0.52565 	-1.07820 	-0.75480 	-0.85710 	-0.91205 	-0.74955 	-0.75720 
0.20325 	0.37720 	0.37390 	0.48180 	0.41495 	0.59335 	0.16650 	0.23100 	0.43705 	0.37765 	-0.06540 	-0.01610 	0.06845 	0.34800 	-0.06515 	-0.06585 	-0.11695 	-1.12440 	-0.36910 	-0.48345 	-0.57580 	-1.20410 	-0.83590 	-0.95080 	-1.01265 	-0.86995 	-0.89185 
0.15765 	0.36065 	0.38630 	0.53840 	0.44540 	0.46150 	0.18930 	0.38185 	0.38970 	0.13160 	-0.05625 	0.12575 	0.00830 	0.13730 	-0.07495 	-0.03375 	-0.09315 	-1.19875 	-0.39520 	-0.50660 	-0.59960 	-1.29415 	-0.88395 	-1.01045 	-1.07380 	-0.95430 	-0.98940 
0.11495 	0.33275 	0.38935 	0.58450 	0.47015 	0.33365 	0.20470 	0.52215 	0.33760 	-0.10040 	-0.04895 	0.26330 	-0.04800 	-0.05035 	-0.07790 	0.00630 	-0.06305 	-1.23490 	-0.40695 	-0.51445 	-0.60620 	-1.35490 	-0.90645 	-1.04345 	-1.10295 	-1.00920 	-1.05560 
0.07000 	0.28845 	0.37635 	0.61235 	0.48340 	0.20935 	0.20470 	0.64085 	0.27655 	-0.31670 	-0.05165 	0.38430 	-0.10545 	-0.21720 	-0.08225 	0.04485 	-0.03585 	-1.23660 	-0.41205 	-0.51485 	-0.60360 	-1.39190 	-0.91010 	-1.05655 	-1.10700 	-1.04045 	-1.09570 
0.01905 	0.22540 	0.34300 	0.61695 	0.48180 	0.08955 	0.18405 	0.72970 	0.20455 	-0.51540 	-0.07020 	0.47960 	-0.16685 	-0.36470 	-0.09420 	0.07450 	-0.01870 	-1.20730 	-0.41635 	-0.51430 	-0.59795 	-1.41010 	-0.90025 	-1.05515 	-1.09170 	-1.05275 	-1.11410 
-0.04005 	0.14390 	0.28760 	0.59605 	0.46395 	-0.02425 	0.14035 	0.78405 	0.12195 	-0.69435 	-0.10760 	0.54305 	-0.23285 	-0.49290 	-0.11750 	0.09010 	-0.01650 	-1.15010 	-0.42385 	-0.51700 	-0.59350 	-1.41325 	-0.88115 	-1.04335 	-1.06155 	-1.04995 	-1.11435 
-0.10800 	0.04645 	0.21100 	0.54985 	0.43065 	-0.13010 	0.07415 	0.80290 	0.03095 	-0.85170 	-0.16425 	0.57215 	-0.30220 	-0.60110 	-0.15370 	0.08900 	-0.03145 	-1.06790 	-0.43670 	-0.52550 	-0.59250 	-1.40425 	-0.85550 	-1.02395 	-1.02015 	-1.03465 	-1.09925 
-0.18420 	-0.06270 	0.11635 	0.48110 	0.38395 	-0.22600 	-0.01165 	0.78835 	-0.06510 	-0.98610 	-0.23805 	0.56770 	-0.37220 	-0.68780 	-0.20210 	0.07085 	-0.06385 	-0.96305 	-0.45535 	-0.54045 	-0.59560 	-1.38485 	-0.82515 	-0.99870 	-0.96990 	-1.00885 	-1.07100 
-0.26665 	-0.17775 	0.00835 	0.39390 	0.32685 	-0.31015 	-0.11210 	0.74505 	-0.16240 	-1.09595 	-0.32495 	0.53325 	-0.43910 	-0.75135 	-0.26035 	0.03735 	-0.11170 	-0.83790 	-0.47855 	-0.56105 	-0.60205 	-1.35615 	-0.79070 	-0.96840 	-0.91245 	-0.97380 	-1.03100 
-0.35240 	-0.29255 	-0.10715 	0.29365 	0.26270 	-0.38065 	-0.22085 	0.67935 	-0.25750 	-1.17985 	-0.41945 	0.47435 	-0.49895 	-0.79005 	-0.32455 	-0.00835 	-0.17180 	-0.69465 	-0.50450 	-0.58540 	-0.61050 	-1.31850 	-0.75245 	-0.93320 	-0.84895 	-0.93035 	-0.98055 
-0.43780 	-0.40090 	-0.22390 	0.18620 	0.19520 	-0.43605 	-0.33110 	0.59825 	-0.34725 	-1.23620 	-0.51555 	0.39765 	-0.54795 	-0.80305 	-0.39065 	-0.06225 	-0.24005 	-0.53585 	-0.53060 	-0.61105 	-0.61895 	-1.27215 	-0.71035 	-0.89300 	-0.78045 	-0.87940 	-0.92115 
-0.51910 	-0.49725 	-0.33580 	0.07745 	0.12830 	-0.47495 	-0.43625 	0.50895 	-0.42915 	-1.26385 	-0.60740 	0.31030 	-0.58290 	-0.79055 	-0.45415 	-0.11990 	-0.31165 	-0.36445 	-0.55420 	-0.63565 	-0.62555 	-1.21735 	-0.66430 	-0.84800 	-0.70780 	-0.82185 	-0.85420 
-0.59260 	-0.57725 	-0.43720 	-0.02700 	0.06610 	-0.49680 	-0.53045 	0.41810 	-0.50090 	-1.26245 	-0.68950 	0.21950 	-0.60160 	-0.75420 	-0.51125 	-0.17700 	-0.38235 	-0.18415 	-0.57305 	-0.65680 	-0.62875 	-1.15490 	-0.61450 	-0.79820 	-0.63230 	-0.75905 	-0.78160 
-0.65530 	-0.63805 	-0.52390 	-0.12250 	0.01205 	-0.50135 	-0.60910 	0.33135 	-0.56075 	-1.23310 	-0.75770 	0.13140 	-0.60300 	-0.69755 	-0.55890 	-0.22960 	-0.44850 	0.00055 	-0.58545 	-0.67290 	-0.62735 	-1.08605 	-0.56145 	-0.74430 	-0.55530 	-0.69255 	-0.70550 
-0.70525 	-0.67875 	-0.59305 	-0.20575 	-0.03105 	-0.48960 	-0.66935 	0.25280 	-0.60755 	-1.17865 	-0.80935 	0.05115 	-0.58765 	-0.62535 	-0.59520 	-0.27495 	-0.50730 	0.18470 	-0.59060 	-0.68285 	-0.62085 	-1.01265 	-0.50610 	-0.68725 	-0.47840 	-0.62410 	-0.62830 
-0.74140 	-0.70035 	-0.64380 	-0.27500 	-0.06195 	-0.46300 	-0.71045 	0.18460 	-0.64075 	-1.10375 	-0.84350 	-0.01810 	-0.55745 	-0.54360 	-0.61970 	-0.31140 	-0.55750 	0.36275 	-0.58855 	-0.68660 	-0.60940 	-0.93705 	-0.44975 	-0.62845 	-0.40350 	-0.55580 	-0.55220 
-0.76395 	-0.70555 	-0.67670 	-0.33000 	-0.08050 	-0.42385 	-0.73340 	0.12690 	-0.66060 	-1.01395 	-0.86105 	-0.07530 	-0.51530 	-0.45860 	-0.63315 	-0.33845 	-0.59860 	0.52920 	-0.58035 	-0.68490 	-0.59385 	-0.86185 	-0.39400 	-0.56960 	-0.33235 	-0.48955 	-0.47945 
-0.77380 	-0.69800 	-0.69390 	-0.37185 	-0.08755 	-0.37495 	-0.74080 	0.07850 	-0.66780 	-0.91510 	-0.86440 	-0.12115 	-0.46475 	-0.37620 	-0.63760 	-0.35710 	-0.63125 	0.67890 	-0.56770 	-0.67915 	-0.57565 	-0.78950 	-0.34040 	-0.51220 	-0.26630 	-0.42690 	-0.41170 
-0.77245 	-0.68215 	-0.69830 	-0.40220 	-0.08455 	-0.31910 	-0.73645 	0.03670 	-0.66375 	-0.81270 	-0.85735 	-0.15820 	-0.40980 	-0.30150 	-0.63595 	-0.36930 	-0.65665 	0.80770 	-0.55285 	-0.67135 	-0.55645 	-0.72245 	-0.29065 	-0.45800 	-0.20660 	-0.36930 	-0.35030 
-0.76165 	-0.66245 	-0.69355 	-0.42330 	-0.07310 	-0.25930 	-0.72475 	-0.00185 	-0.65000 	-0.71145 	-0.84430 	-0.19015 	-0.35435 	-0.23840 	-0.63160 	-0.37755 	-0.67635 	0.91245 	-0.53830 	-0.66355 	-0.53795 	-0.66245 	-0.24595 	-0.40820 	-0.15380 	-0.31755 	-0.29600 
-0.74335 	-0.64275 	-0.68335 	-0.43775 	-0.05545 	-0.19825 	-0.71045 	-0.04080 	-0.62880 	-0.61515 	-0.83010 	-0.22115 	-0.30255 	-0.18940 	-0.62815 	-0.38490 	-0.69205 	0.99130 	-0.52645 	-0.65815 	-0.52180 	-0.61085 	-0.20735 	-0.36395 	-0.10820 	-0.27225 	-0.24905 
-0.71950 	-0.62645 	-0.67145 	-0.44800 	-0.03400 	-0.13850 	-0.69815 	-0.08375 	-0.60285 	-0.52675 	-0.81965 	-0.25575 	-0.25830 	-0.15600 	-0.62925 	-0.39435 	-0.70565 	1.04355 	-0.51960 	-0.65705 	-0.50915 	-0.56815 	-0.17565 	-0.32590 	-0.06970 	-0.23355 	-0.20920 
-0.69180 	-0.61560 	-0.66110 	-0.45645 	-0.01140 	-0.08215 	-0.69185 	-0.13380 	-0.57480 	-0.44860 	-0.81720 	-0.29785 	-0.22510 	-0.13850 	-0.63795 	-0.40870 	-0.71880 	1.07010 	-0.51975 	-0.66185 	-0.50075 	-0.53400 	-0.15090 	-0.29430 	-0.03760 	-0.20130 	-0.17570 
-0.66180 	-0.61125 	-0.65510 	-0.46490 	0.01010 	-0.03050 	-0.69495 	-0.19320 	-0.54710 	-0.38235 	-0.82635 	-0.35040 	-0.20610 	-0.13640 	-0.65695 	-0.43015 	-0.73295 	1.07265 	-0.52840 	-0.67380 	-0.49690 	-0.50775 	-0.13320 	-0.26895 	-0.01125 	-0.17510 	-0.14765 
-0.63080 	-0.61345 	-0.65535 	-0.47490 	0.02875 	0.01545 	-0.70965 	-0.26295 	-0.52155 	-0.32900 	-0.84990 	-0.41530 	-0.20380 	-0.14845 	-0.68815 	-0.46035 	-0.74950 	1.05380 	-0.54675 	-0.69375 	-0.49785 	-0.48830 	-0.12235 	-0.24950 	0.01030 	-0.15460 	-0.12405 
-0.59985 	-0.62135 	-0.66320 	-0.48710 	0.04350 	0.05490 	-0.73745 	-0.34330 	-0.49915 	-0.28895 	-0.88970 	-0.49315 	-0.21970 	-0.17325 	-0.73295 	-0.50080 	-0.76965 	1.01660 	-0.57560 	-0.72230 	-0.50340 	-0.47440 	-0.11810 	-0.23585 	0.02750 	-0.13960 	-0.10445 
-0.57005 	-0.63340 	-0.67940 	-0.50240 	0.05355 	0.08735 	-0.77910 	-0.43370 	-0.48045 	-0.26235 	-0.94695 	-0.58390 	-0.25440 	-0.20925 	-0.79240 	-0.55245 	-0.79475 	0.96445 	-0.61585 	-0.76010 	-0.51390 	-0.46525 	-0.12050 	-0.22795 	0.04090 	-0.13040 	-0.08865 
-0.54250 	-0.64810 	-0.70450 	-0.52140 	0.05805 	0.11190 	-0.83490 	-0.53330 	-0.46620 	-0.24925 	-1.02250 	-0.68710 	-0.30785 	-0.25525 	-0.86735 	-0.61645 	-0.82615 	0.90015 	-0.66835 	-0.80795 	-0.52995 	-0.46035 	-0.13000 	-0.22635 	0.05020 	-0.12760 	-0.07725 
-0.51850 	-0.66445 	-0.73905 	-0.54530 	0.05545 	0.12765 	-0.90510 	-0.64130 	-0.45755 	-0.24965 	-1.11690 	-0.80225 	-0.37970 	-0.31090 	-0.95840 	-0.69385 	-0.86540 	0.82605 	-0.73405 	-0.86690 	-0.55275 	-0.45980 	-0.14750 	-0.23190 	0.05475 	-0.13225 	-0.07120 
-0.49960 	-0.68160 	-0.78355 	-0.57555 	0.04390 	0.13350 	-0.98975 	-0.75730 	-0.45615 	-0.26350 	-1.23055 	-0.92895 	-0.46925 	-0.37640 	-1.06625 	-0.78585 	-0.91415 	0.74365 	-0.81400 	-0.93800 	-0.58370 	-0.46400 	-0.17435 	-0.24580 	0.05355 	-0.14565 	-0.07170 
-0.48735 	-0.69955 	-0.83865 	-0.61375 	0.02130 	0.12830 	-1.08885 	-0.88095 	-0.46410 	-0.29085 	-1.36330 	-1.06680 	-0.57540 	-0.45260 	-1.19110 	-0.89315 	-0.97405 	0.65370 	-0.90905 	-1.02225 	-0.62430 	-0.47375 	-0.21165 	-0.26915 	0.04560 	-0.16885 	-0.07990 
-0.48300 	-0.71895 	-0.90470 	-0.66155 	-0.01440 	0.11110 	-1.20230 	-1.01210 	-0.48345 	-0.33170 	-1.51490 	-1.21540 	-0.69660 	-0.54010 	-1.33280 	-1.01630 	-1.04605 	0.55675 	-1.01940 	-1.12010 	-0.67555 	-0.48935 	-0.26045 	-0.30275 	0.03010 	-0.20270 	-0.09665 
-0.48755 	-0.74075 	-0.98210 	-0.72025 	-0.06480 	0.08115 	-1.32960 	-1.15050 	-0.51625 	-0.38540 	-1.68415 	-1.37385 	-0.83085 	-0.63880 	-1.49045 	-1.15495 	-1.13055 	0.45345 	-1.14470 	-1.23155 	-0.73790 	-0.51090 	-0.32100 	-0.34670 	0.00685 	-0.24705 	-0.12205 
-0.50155 	-0.76645 	-1.07090 	-0.79100 	-0.13080 	0.03810 	-1.47010 	-1.29590 	-0.56390 	-0.45110 	-1.86955 	-1.54130 	-0.97525 	-0.74735 	-1.66270 	-1.30810 	-1.22700 	0.34515 	-1.28385 	-1.35565 	-0.81075 	-0.53770 	-0.39320 	-0.40055 	-0.02380 	-0.30145 	-0.15580 
-0.52530 	-0.79775 	-1.17085 	-0.87425 	-0.21255 	-0.01770 	-1.62280 	-1.44785 	-0.62745 	-0.52670 	-2.06895 	-1.71665 	-1.12695 	-0.86295 	-1.84735 	-1.47405 	-1.33405 	0.23415 	-1.43500 	-1.49080 	-0.89290 	-0.56860 	-0.47600 	-0.46320 	-0.06080 	-0.36445 	-0.19695 
-0.55825 	-0.83650 	-1.28130 	-0.96980 	-0.30910 	-0.08550 	-1.78600 	-1.60570 	-0.70685 	-0.60985 	-2.27980 	-1.89855 	-1.28295 	-0.98170 	-2.04165 	-1.65050 	-1.44955 	0.12360 	-1.59560 	-1.63490 	-0.98215 	-0.60140 	-0.56765 	-0.53280 	-0.10270 	-0.43430 	-0.24405 
-0.59960 	-0.88415 	-1.40120 	-1.07680 	-0.41840 	-0.16395 	-1.95795 	-1.76835 	-0.80135 	-0.69765 	-2.49905 	-2.08530 	-1.44020 	-1.09875 	-2.24255 	-1.83450 	-1.57070 	0.01760 	-1.76255 	-1.78485 	-1.07565 	-0.63390 	-0.66595 	-0.60690 	-0.14750 	-0.50850 	-0.29520 
-0.64825 	-0.94200 	-1.52925 	-1.19370 	-0.53775 	-0.25130 	-2.13645 	-1.93445 	-0.90870 	-0.78720 	-2.72320 	-2.27485 	-1.59580 	-1.20935 	-2.44655 	-2.02280 	-1.69435 	-0.07930 	-1.93230 	-1.93745 	-1.17025 	-0.66325 	-0.76800 	-0.68290 	-0.19295 	-0.58440 	-0.34830 
-0.70285 	-1.01100 	-1.66385 	-1.31865 	-0.66415 	-0.34570 	-2.31900 	-2.10235 	-1.02635 	-0.87615 	-2.94890 	-2.46500 	-1.74695 	-1.30930 	-2.65000 	-2.21175 	-1.81700 	-0.16260 	-2.10145 	-2.08920 	-1.26280 	-0.68695 	-0.87105 	-0.75795 	-0.23690 	-0.65925 	-0.40105 
-0.76245 	-1.09185 	-1.80375 	-1.44985 	-0.79500 	-0.44545 	-2.50350 	-2.27030 	-1.15130 	-0.96290 	-3.17290 	-2.65305 	-1.89100 	-1.39550 	-2.84965 	-2.39800 	-1.93535 	-0.22855 	-2.26660 	-2.23670 	-1.35020 	-0.70250 	-0.97220 	-0.82940 	-0.27740 	-0.73040 	-0.45085 
-0.82620 	-1.18490 	-1.94795 	-1.58610 	-0.92830 	-0.54920 	-2.68810 	-2.43685 	-1.28100 	-1.04665 	-3.39225 	-2.83685 	-2.02595 	-1.46650 	-3.04270 	-2.57845 	-2.04645 	-0.27470 	-2.42505 	-2.37710 	-1.43010 	-0.70835 	-1.06900 	-0.89515 	-0.31275 	-0.79535 	-0.49540 
-0.89360 	-1.29015 	-2.09605 	-1.72650 	-1.06375 	-0.65620 	-2.87155 	-2.60080 	-1.41360 	-1.12765 	-3.60475 	-3.01415 	-2.15040 	-1.52225 	-3.22665 	-2.75050 	-2.14815 	-0.30025 	-2.57440 	-2.50790 	-1.50055 	-0.70335 	-1.15930 	-0.95335 	-0.34170 	-0.85230 	-0.53285 
-0.96430 	-1.40700 	-2.24740 	-1.87080 	-1.20130 	-0.76590 	-3.05265 	-2.76135 	-1.54795 	-1.20660 	-3.80840 	-3.18315 	-2.26355 	-1.56395 	-3.39940 	-2.91190 	-2.23845 	-0.30565 	-2.71285 	-2.62735 	-1.56045 	-0.68745 	-1.24145 	-1.00285 	-0.36355 	-0.89985 	-0.56155 
-1.03775 	-1.53385 	-2.40145 	-2.01845 	-1.34115 	-0.87820 	-3.23055 	-2.91770 	-1.68300 	-1.28410 	-4.00150 	-3.34230 	-2.36525 	-1.59360 	-3.55920 	-3.06065 	-2.31615 	-0.29260 	-2.83885 	-2.73385 	-1.60895 	-0.66085 	-1.31420 	-1.04280 	-0.37785 	-0.93700 	-0.58055 
-1.11305 	-1.66805 	-2.55700 	-2.16830 	-1.48290 	-0.99265 	-3.40400 	-3.06875 	-1.81750 	-1.36025 	-4.18245 	-3.48995 	-2.45545 	-1.61315 	-3.70435 	-3.19500 	-2.38055 	-0.26370 	-2.95100 	-2.82620 	-1.64565 	-0.62430 	-1.37660 	-1.07270 	-0.38445 	-0.96345 	-0.58965 
-1.18925 	-1.80605 	-2.71255 	-2.31895 	-1.62530 	-1.10875 	-3.57180 	-3.21335 	-1.94985 	-1.43450 	-4.34980 	-3.62490 	-2.53440 	-1.62435 	-3.83330 	-3.31380 	-2.43130 	-0.22180 	-3.04840 	-2.90350 	-1.67070 	-0.57900 	-1.42825 	-1.09260 	-0.38360 	-0.97955 	-0.58935 
-1.26505 	-1.94385 	-2.86630 	-2.46845 	-1.76645 	-1.22580 	-3.73245 	-3.35010 	-2.07850 	-1.50585 	-4.50250 	-3.74620 	-2.60265 	-1.62870 	-3.94520 	-3.41625 	-2.46890 	-0.17065 	-3.13050 	-2.96545 	-1.68460 	-0.52650 	-1.46925 	-1.10310 	-0.37595 	-0.98615 	-0.58070 
-1.33930 	-2.07735 	-3.01650 	-2.61510 	-1.90455 	-1.34270 	-3.88505 	-3.47820 	-2.20220 	-1.57320 	-4.63985 	-3.85370 	-2.66130 	-1.62725 	-4.03960 	-3.50245 	-2.49440 	-0.11405 	-3.19730 	-3.01215 	-1.68860 	-0.46855 	-1.50035 	-1.10515 	-0.36255 	-0.98470 	-0.56540 
-1.41120 	-2.20300 	-3.16175 	-2.75775 	-2.03820 	-1.45830 	-4.02895 	-3.59725 	-2.32025 	-1.63570 	-4.76220 	-3.94795 	-2.71175 	-1.62110 	-4.11680 	-3.57315 	-2.50965 	-0.05625 	-3.24940 	-3.04465 	-1.68430 	-0.40735 	-1.52270 	-1.10030 	-0.34485 	-0.97725 	-0.54530 
-1.48015 	-2.31805 	-3.30130 	-2.89595 	-2.16660 	-1.57155 	-4.16420 	-3.70770 	-2.43280 	-1.69310 	-4.87025 	-4.03015 	-2.75610 	-1.61120 	-4.17780 	-3.62970 	-2.51705 	-0.00145 	-3.28800 	-3.06410 	-1.67375 	-0.34500 	-1.53830 	-1.09050 	-0.32460 	-0.96595 	-0.52265 
-1.54585 	-2.42100 	-3.43480 	-3.02970 	-2.29010 	-1.68135 	-4.29130 	-3.81065 	-2.54075 	-1.74575 	-4.96535 	-4.10210 	-2.79690 	-1.59905 	-4.22405 	-3.67405 	-2.51925 	0.04635 	-3.31455 	-3.07230 	-1.65930 	-0.28400 	-1.54885 	-1.07780 	-0.30380 	-0.95310 	-0.49965 
-1.60820 	-2.51110 	-3.56240 	-3.15965 	-2.40915 	-1.78650 	-4.41120 	-3.90780 	-2.64535 	-1.79420 	-5.04910 	-4.16580 	-2.83705 	-1.58625 	-4.25735 	-3.70815 	-2.51915 	0.08375 	-3.33070 	-3.07120 	-1.64330 	-0.22675 	-1.55645 	-1.06435 	-0.28455 	-0.94070 	-0.47815 
-1.66735 	-2.58895 	-3.68450 	-3.28640 	-2.52480 	-1.88585 	-4.52480 	-4.00080 	-2.74780 	-1.83910 	-5.12320 	-4.22315 	-2.87915 	-1.57450 	-4.27960 	-3.73425 	-2.51965 	0.10800 	-3.33815 	-3.06270 	-1.62795 	-0.17565 	-1.56290 	-1.05195 	-0.26870 	-0.93055 	-0.46005 
-1.72355 	-2.65590 	-3.80170 	-3.41060 	-2.63800 	-1.97855 	-4.63310 	-4.09110 	-2.84940 	-1.88140 	-5.18925 	-4.27595 	-2.92540 	-1.56555 	-4.29245 	-3.75435 	-2.52355 	0.11725 	-3.33860 	-3.04890 	-1.61545 	-0.13330 	-1.56975 	-1.04260 	-0.25800 	-0.92405 	-0.44675 
-1.77705 	-2.71405 	-3.91450 	-3.53230 	-2.74960 	-2.06380 	-4.73675 	-4.17950 	-2.95090 	-1.92230 	-5.24855 	-4.32540 	-2.97705 	-1.56100 	-4.29765 	-3.77030 	-2.53315 	0.11045 	-3.33350 	-3.03170 	-1.60780 	-0.10175 	-1.57845 	-1.03760 	-0.25395 	-0.92220 	-0.43945 
-1.82830 	-2.76605 	-4.02335 	-3.65150 	-2.86000 	-2.14140 	-4.83605 	-4.26625 	-3.05290 	-1.96370 	-5.30210 	-4.37205 	-3.03465 	-1.56235 	-4.29660 	-3.78360 	-2.55020 	0.08715 	-3.32435 	-3.01285 	-1.60675 	-0.08295 	-1.59010 	-1.03845 	-0.25780 	-0.92575 	-0.43910 
-1.87760 	-2.81460 	-4.12845 	-3.76760 	-2.96950 	-2.21170 	-4.93115 	-4.35095 	-3.15560 	-2.00795 	-5.35055 	-4.41610 	-3.09805 	-1.57085 	-4.29040 	-3.79530 	-2.57585 	0.04735 	-3.31225 	-2.99400 	-1.61360 	-0.07845 	-1.60560 	-1.04605 	-0.27055 	-0.93530 	-0.44630 
-1.92515 	-2.86260 	-4.22995 	-3.87975 	-3.07805 	-2.27540 	-5.02160 	-4.43275 	-3.25900 	-2.05750 	-5.39425 	-4.45720 	-3.16620 	-1.58755 	-4.28000 	-3.80605 	-2.61025 	-0.00820 	-3.29820 	-2.97630 	-1.62930 	-0.08905 	-1.62560 	-1.06095 	-0.29285 	-0.95120 	-0.46110 
-1.97115 	-2.91225 	-4.32760 	-3.98700 	-3.18520 	-2.33365 	-5.10700 	-4.51065 	-3.36265 	-2.11425 	-5.43310 	-4.49510 	-3.23805 	-1.61310 	-4.26590 	-3.81640 	-2.65305 	-0.07885 	-3.28300 	-2.96070 	-1.65430 	-0.11520 	-1.65030 	-1.08355 	-0.32510 	-0.97345 	-0.48330 
-2.01510 	-2.96530 	-4.42090 	-4.08825 	-3.29085 	-2.38750 	-5.18650 	-4.58345 	-3.46610 	-2.17930 	-5.46685 	-4.52925 	-3.31190 	-1.64785 	-4.24865 	-3.82635 	-2.70365 	-0.16355 	-3.26715 	-2.94765 	-1.68860 	-0.15645 	-1.67960 	-1.11370 	-0.36735 	-1.00185 	-0.51180 
-2.05660 	-3.02250 	-4.50910 	-4.18250 	-3.39440 	-2.43800 	-5.25905 	-4.65020 	-3.56880 	-2.25295 	-5.49475 	-4.55935 	-3.38630 	-1.69165 	-4.22805 	-3.83595 	-2.76085 	-0.26110 	-3.25075 	-2.93735 	-1.73185 	-0.21225 	-1.71300 	-1.15090 	-0.41925 	-1.03575 	-0.54545 
-2.09455 	-3.08350 	-4.59105 	-4.26875 	-3.49550 	-2.48615 	-5.32340 	-4.70980 	-3.67035 	-2.33435 	-5.51595 	-4.58490 	-3.45970 	-1.74390 	-4.20390 	-3.84485 	-2.82340 	-0.37010 	-3.23370 	-2.92950 	-1.78320 	-0.28130 	-1.74970 	-1.19430 	-0.48005 	-1.07415 	-0.58240 
-2.12785 	-3.14685 	-4.66525 	-4.34590 	-3.59345 	-2.53285 	-5.37820 	-4.76130 	-3.77030 	-2.42205 	-5.52905 	-4.60510 	-3.53055 	-1.80355 	-4.17550 	-3.85260 	-2.88980 	-0.48890 	-3.21545 	-2.92315 	-1.84135 	-0.36230 	-1.78830 	-1.24245 	-0.54860 	-1.11565 	-0.62070 
-2.15495 	-3.21010 	-4.72970 	-4.41280 	-3.68700 	-2.57870 	-5.42150 	-4.80350 	-3.86780 	-2.51405 	-5.53215 	-4.61905 	-3.59750 	-1.86905 	-4.14165 	-3.85815 	-2.95830 	-0.61565 	-3.19485 	-2.91725 	-1.90455 	-0.45355 	-1.82700 	-1.29355 	-0.62290 	-1.15835 	-0.65825 
-2.17405 	-3.26960 	-4.78230 	-4.46825 	-3.77455 	-2.62380 	-5.45150 	-4.83545 	-3.96160 	-2.60820 	-5.52330 	-4.62540 	-3.65935 	-1.93835 	-4.10065 	-3.85985 	-3.02690 	-0.74780 	-3.17040 	-2.90980 	-1.97045 	-0.55280 	-1.86365 	-1.34535 	-0.70085 	-1.19995 	-0.69270 
-2.18335 	-3.32105 	-4.82060 	-4.51095 	-3.85380 	-2.66775 	-5.46625 	-4.85610 	-4.04975 	-2.70175 	-5.50010 	-4.62285 	-3.71520 	-2.00920 	-4.05060 	-3.85605 	-3.09350 	-0.88255 	-3.14010 	-2.89870 	-2.03645 	-0.65780 	-1.89575 	-1.39520 	-0.77970 	-1.23800 	-0.72170 
-2.18100 	-3.35995 	-4.84240 	-4.53980 	-3.92240 	-2.70915 	-5.46385 	-4.86495 	-4.13005 	-2.79180 	-5.46060 	-4.61045 	-3.76440 	-2.07930 	-3.98955 	-3.84470 	-3.15620 	-1.01685 	-3.10205 	-2.88170 	-2.09980 	-0.76595 	-1.92090 	-1.44060 	-0.85680 	-1.27005 	-0.74310 
-2.16540 	-3.38210 	-4.84585 	-4.55415 	-3.97825 	-2.74625 	-5.44305 	-4.86195 	-4.20000 	-2.87510 	-5.40315 	-4.58780 	-3.80660 	-2.14675 	-3.91585 	-3.82440 	-3.21345 	-1.14815 	-3.05450 	-2.85700 	-2.15815 	-0.87510 	-1.93705 	-1.47930 	-0.92975 	-1.29395 	-0.75535 
-2.13555 	-3.38400 	-4.82995 	-4.55385 	-4.02005 	-2.77710 	-5.40325 	-4.84765 	-4.25775 	-2.94835 	-5.32700 	-4.55505 	-3.84190 	-2.21005 	-3.82845 	-3.79390 	-3.26455 	-1.27480 	-2.99640 	-2.82305 	-2.20975 	-0.98320 	-1.94255 	-1.50980 	-0.99660 	-1.30805 	-0.75750 
-2.09100 	-3.36350 	-4.79435 	-4.53940 	-4.04680 	-2.79980 	-5.34450 	-4.82275 	-4.30165 	-3.00830 	-5.23190 	-4.51285 	-3.87010 	-2.26875 	-3.72670 	-3.75265 	-3.30905 	-1.39640 	-2.92690 	-2.77890 	-2.25335 	-1.08885 	-1.93660 	-1.53100 	-1.05620 	-1.31140 	-0.74920 
-2.03185 	-3.31940 	-4.73940 	-4.51125 	-4.05825 	-2.81320 	-5.26740 	-4.78805 	-4.33080 	-3.05230 	-5.11820 	-4.46170 	-3.89110 	-2.32285 	-3.61065 	-3.70035 	-3.34715 	-1.51375 	-2.84595 	-2.72415 	-2.28840 	-1.19120 	-1.91860 	-1.54260 	-1.10780 	-1.30360 	-0.73090 
-1.95880 	-3.25210 	-4.66595 	-4.47035 	-4.05465 	-2.81665 	-5.17295 	-4.74400 	-4.34460 	-3.07840 	-4.98655 	-4.40205 	-3.90375 	-2.37275 	-3.48040 	-3.63690 	-3.37895 	-1.62870 	-2.75350 	-2.65855 	-2.31450 	-1.28975 	-1.88860 	-1.54450 	-1.15130 	-1.28435 	-0.70295 
-1.87310 	-3.16310 	-4.57530 	-4.41760 	-4.03665 	-2.81025 	-5.06220 	-4.69090 	-4.34280 	-3.08645 	-4.83770 	-4.33385 	-3.90665 	-2.41960 	-3.33640 	-3.56220 	-3.40440 	-1.74350 	-2.64970 	-2.58220 	-2.33175 	-1.38430 	-1.84680 	-1.53700 	-1.18675 	-1.25390 	-0.66615 
-1.77655 	-3.05510 	-4.46930 	-4.35410 	-4.00510 	-2.79445 	-4.93685 	-4.62895 	-4.32585 	-3.07785 	-4.67270 	-4.25695 	-3.89850 	-2.46470 	-3.17940 	-3.47630 	-3.42345 	-1.86040 	-2.53520 	-2.49540 	-2.34055 	-1.47490 	-1.79375 	-1.52065 	-1.21455 	-1.21270 	-0.62125 
-1.67125 	-2.93190 	-4.35020 	-4.28125 	-3.96155 	-2.77025 	-4.79855 	-4.55870 	-4.29470 	-3.05580 	-4.49290 	-4.17115 	-3.87850 	-2.50985 	-3.01025 	-3.37925 	-3.43600 	-1.98145 	-2.41050 	-2.39875 	-2.34130 	-1.56200 	-1.73030 	-1.49625 	-1.23535 	-1.16150 	-0.56920 
-1.55970 	-2.79810 	-4.22050 	-4.20060 	-3.90775 	-2.73880 	-4.64935 	-4.48075 	-4.25100 	-3.02470 	-4.30000 	-4.07655 	-3.84675 	-2.55660 	-2.83015 	-3.27145 	-3.44225 	-2.10825 	-2.27655 	-2.29305 	-2.33515 	-1.64615 	-1.65760 	-1.46485 	-1.25000 	-1.10125 	-0.51070 
-1.44435 	-2.65850 	-4.08275 	-4.11355 	-3.84575 	-2.70120 	-4.49115 	-4.39605 	-4.19665 	-2.98930 	-4.09545 	-3.97335 	-3.80420 	-2.60640 	-2.64030 	-3.15335 	-3.44245 	-2.24180 	-2.13425 	-2.17915 	-2.32295 	-1.72770 	-1.57665 	-1.42735 	-1.25950 	-1.03295 	-0.44645 
-1.32750 	-2.51765 	-3.93930 	-4.02145 	-3.77700 	-2.65845 	-4.32575 	-4.30525 	-4.13360 	-2.95380 	-3.88085 	-3.86175 	-3.75220 	-2.66000 	-2.44190 	-3.02530 	-3.43670 	-2.38275 	-1.98440 	-2.05785 	-2.30560 	-1.80710 	-1.48860 	-1.38450 	-1.26480 	-0.95750 	-0.37700 
-1.21105 	-2.37985 	-3.79200 	-3.92520 	-3.70295 	-2.61140 	-4.15425 	-4.20850 	-4.06355 	-2.92170 	-3.65735 	-3.74165 	-3.69245 	-2.71780 	-2.23585 	-2.88745 	-3.42485 	-2.53125 	-1.82750 	-1.92960 	-2.28345 	-1.88445 	-1.39395 	-1.33675 	-1.26635 	-0.87555 	-0.30260 
-1.09635 	-2.24805 	-3.64210 	-3.82535 	-3.62445 	-2.56075 	-3.97730 	-4.10570 	-3.98780 	-2.89490 	-3.42555 	-3.61290 	-3.62630 	-2.77980 	-2.02265 	-2.73970 	-3.40640 	-2.68695 	-1.66365 	-1.79450 	-2.25645 	-1.95955 	-1.29330 	-1.28425 	-1.26460 	-0.78740 	-0.22340 
-0.98420 	-2.12455 	-3.49025 	-3.72175 	-3.54215 	-2.50730 	-3.79500 	-3.99610 	-3.90700 	-2.87420 	-3.18575 	-3.47470 	-3.55440 	-2.84585 	-1.80235 	-2.58180 	-3.38055 	-2.84925 	-1.49275 	-1.65240 	-2.22415 	-2.03220 	-1.18645 	-1.22675 	-1.25940 	-0.69330 	-0.13970 
-0.87515 	-2.01000 	-3.33665 	-3.61425 	-3.45640 	-2.45150 	-3.60690 	-3.87855 	-3.82140 	-2.85920 	-2.93780 	-3.32645 	-3.47690 	-2.91595 	-1.57510 	-2.41340 	-3.34655 	-3.01695 	-1.31445 	-1.50275 	-2.18575 	-2.10200 	-1.07350 	-1.16400 	-1.25075 	-0.59360 	-0.05180 
-0.76930 	-1.90440 	-3.18100 	-3.50205 	-3.36730 	-2.39405 	-3.41235 	-3.75170 	-3.73085 	-2.84880 	-2.68150 	-3.16715 	-3.39320 	-2.99030 	-1.34080 	-2.23455 	-3.30365 	-3.18820 	-1.12875 	-1.34560 	-2.14055 	-2.16865 	-0.95445 	-1.09585 	-1.23835 	-0.48905 	0.03960 
-0.66675 	-1.80650 	-3.02270 	-3.38450 	-3.27475 	-2.33555 	-3.21055 	-3.61430 	-3.63470 	-2.84135 	-2.41665 	-2.99625 	-3.30245 	-3.06880 	-1.09950 	-2.04535 	-3.25170 	-3.36065 	-0.93580 	-1.18095 	-2.08815 	-2.23185 	-0.82970 	-1.02225 	-1.22210 	-0.38040 	0.13355 
-0.56740 	-1.71445 	-2.86110 	-3.26075 	-3.17885 	-2.27680 	-3.00080 	-3.46510 	-3.53255 	-2.83500 	-2.14345 	-2.81330 	-3.20400 	-3.15110 	-0.85160 	-1.84650 	-3.19110 	-3.53105 	-0.73605 	-1.00920 	-2.02850 	-2.29120 	-0.69970 	-0.94360 	-1.20220 	-0.26890 	0.22880 
-0.47140 	-1.62580 	-2.69560 	-3.12995 	-3.07965 	-2.21855 	-2.78265 	-3.30340 	-3.42370 	-2.82780 	-1.86215 	-2.61850 	-3.09735 	-3.23615 	-0.59755 	-1.63890 	-3.12265 	-3.69565 	-0.53020 	-0.83105 	-1.96200 	-2.34640 	-0.56525 	-0.86025 	-1.17880 	-0.15580 	0.32425 
-0.37885 	-1.53805 	-2.52545 	-2.99170 	-2.97720 	-2.16165 	-2.55560 	-3.12860 	-3.30790 	-2.81775 	-1.57325 	-2.41235 	-2.98270 	-3.32190 	-0.33815 	-1.42400 	-3.04745 	-3.85005 	-0.31920 	-0.64750 	-1.88920 	-2.39695 	-0.42710 	-0.77275 	-1.15235 	-0.04230 	0.41860 
-0.28980 	-1.44830 	-2.35015 	-2.84560 	-2.87175 	-2.10680 	-2.31960 	-2.94070 	-3.18485 	-2.80350 	-1.27730 	-2.19570 	-2.86020 	-3.40575 	-0.07390 	-1.20300 	-2.96660 	-3.98965 	-0.10380 	-0.45940 	-1.81085 	-2.44240 	-0.28600 	-0.68155 	-1.12300 	0.07065 	0.51110 
-0.20415 	-1.35385 	-2.16900 	-2.69120 	-2.76365 	-2.05440 	-2.07455 	-2.73945 	-3.05440 	-2.78425 	-0.97485 	-1.96940 	-2.73050 	-3.48435 	0.19455 	-0.97700 	-2.88090 	-4.10975 	0.11530 	-0.26740 	-1.72740 	-2.48210 	-0.14235 	-0.58675 	-1.09060 	0.18265 	0.60110 
-0.12170 	-1.25230 	-1.98140 	-2.52840 	-2.65285 	-2.00450 	-1.82035 	-2.52520 	-2.91690 	-2.75975 	-0.66640 	-1.73435 	-2.59405 	-3.55395 	0.46685 	-0.74705 	-2.79085 	-4.20645 	0.33785 	-0.07195 	-1.63920 	-2.51545 	0.00380 	-0.48815 	-1.05485 	0.29380 	0.68865 
-0.04195 	-1.14160 	-1.78670 	-2.35695 	-2.53955 	-1.95695 	-1.55685 	-2.29810 	-2.77250 	-2.73015 	-0.35210 	-1.49140 	-2.45170 	-3.61070 	0.74290 	-0.51370 	-2.69625 	-4.27625 	0.56395 	0.12695 	-1.54615 	-2.54155 	0.15275 	-0.38510 	-1.01465 	0.40460 	0.77405 
0.03560 	-1.02055 	-1.58445 	-2.17685 	-2.42350 	-1.91145 	-1.28405 	-2.05875 	-2.62145 	-2.69560 	-0.03210 	-1.24145 	-2.30425 	-3.65115 	1.02265 	-0.27725 	-2.59700 	-4.31705 	0.79360 	0.32930 	-1.44805 	-2.55980 	0.30495 	-0.27705 	-0.96920 	0.51590 	0.85790 
0.11135 	-0.88890 	-1.37435 	-1.98840 	-2.30460 	-1.86740 	-1.00225 	-1.80835 	-2.46410 	-2.65570 	0.29315 	-0.98540 	-2.15270 	-3.67250 	1.30600 	-0.03805 	-2.49250 	-4.32775 	1.02700 	0.53525 	-1.34455 	-2.56935 	0.46095 	-0.16325 	-0.91745 	0.62845 	0.94075 
0.18560 	-0.74730 	-1.15655 	-1.79220 	-2.18230 	-1.82420 	-0.71205 	-1.54830 	-2.30060 	-2.60975 	0.62305 	-0.72450 	-1.99820 	-3.67285 	1.59275 	0.20395 	-2.38215 	-4.30850 	1.26405 	0.74485 	-1.23525 	-2.56975 	0.62090 	-0.04335 	-0.85860 	0.74300 	1.02315 
0.25830 	-0.59740 	-0.93135 	-1.58890 	-2.05615 	-1.78085 	-0.41425 	-1.28050 	-2.13095 	-2.55655 	0.95710 	-0.45975 	-1.84205 	-3.65155 	1.88260 	0.44880 	-2.26540 	-4.26025 	1.50470 	0.95820 	-1.11940 	-2.56045 	0.78515 	0.08300 	-0.79190 	0.86005 	1.10580 
0.32930 	-0.44125 	-0.69915 	-1.37910 	-1.92525 	-1.73645 	-0.10970 	-1.00660 	-1.95510 	-2.49505 	1.29455 	-0.19200 	-1.68505 	-3.60870 	2.17525 	0.69680 	-2.14155 	-4.18455 	1.74875 	1.17540 	-0.99630 	-2.54075 	0.95375 	0.21585 	-0.71655 	0.98015 	1.18915 
0.39840 	-0.28165 	-0.46075 	-1.16365 	-1.78890 	-1.68975 	0.20070 	-0.72810 	-1.77305 	-2.42460 	1.63470 	0.07835 	-1.52780 	-3.54540 	2.47030 	0.94825 	-2.00980 	-4.08325 	1.99600 	1.39635 	-0.86525 	-2.51010 	1.12680 	0.35525 	-0.63215 	1.10370 	1.27385 
0.46530 	-0.12150 	-0.21690 	-0.94335 	-1.64685 	-1.63960 	0.51585 	-0.44665 	-1.58535 	-2.34540 	1.97685 	0.35085 	-1.37065 	-3.46320 	2.76735 	1.20365 	-1.86930 	-3.95820 	2.24615 	1.62105 	-0.72555 	-2.46805 	1.30405 	0.50085 	-0.53840 	1.23085 	1.36025 
0.52960 	0.03625 	0.03120 	-0.71950 	-1.49985 	-1.58540 	0.83455 	-0.16355 	-1.39310 	-2.25815 	2.32010 	0.62550 	-1.21395 	-3.36430 	3.06565 	1.46320 	-1.71965 	-3.81160 	2.49855 	1.84905 	-0.57705 	-2.41425 	1.48530 	0.65235 	-0.43520 	1.36155 	1.44840 
0.59075 	0.18855 	0.28215 	-0.49375 	-1.34925 	-1.52675 	1.15555 	0.11980 	-1.19800 	-2.16415 	2.66345 	0.90190 	-1.05765 	-3.25085 	3.36455 	1.72695 	-1.56040 	-3.64565 	2.75260 	2.07990 	-0.41955 	-2.34870 	1.67005 	0.80915 	-0.32280 	1.49570 	1.53835 
0.64870 	0.33350 	0.53470 	-0.26745 	-1.19655 	-1.46345 	1.47755 	0.40210 	-1.00150 	-2.06460 	3.00615 	1.17990 	-0.90180 	-3.12495 	3.66335 	1.99490 	-1.39160 	-3.46315 	3.00760 	2.31300 	-0.25335 	-2.27160 	1.85790 	0.97080 	-0.20145 	1.63300 	1.62990 
0.70350 	0.46975 	0.78780 	-0.04195 	-1.04290 	-1.39540 	1.79960 	0.68250 	-0.80495 	-1.96030 	3.34740 	1.45930 	-0.74595 	-2.98840 	3.96140 	2.26670 	-1.21335 	-3.26680 	3.26290 	2.54785 	-0.07825 	-2.18290 	2.04870 	1.13700 	-0.07145 	1.77335 	1.72300 
0.75550 	0.59750 	1.04080 	0.18235 	-0.88860 	-1.32220 	2.12095 	0.96025 	-0.60875 	-1.85175 	3.68670 	1.73960 	-0.58910 	-2.84310 	4.25835 	2.54215 	-1.02605 	-3.05985 	3.51800 	2.78405 	0.10540 	-2.08280 	2.24215 	1.30745 	0.06675 	1.91645 	1.81725 
0.80550 	0.71775 	1.29355 	0.40530 	-0.73305 	-1.24345 	2.44120 	1.23505 	-0.41280 	-1.73915 	4.02375 	2.02030 	-0.43010 	-2.69110 	4.55360 	2.82050 	-0.83020 	-2.84580 	3.77230 	3.02100 	0.29745 	-1.97155 	2.43800 	1.48180 	0.21260 	2.06150 	1.91200 
0.85385 	0.83230 	1.54575 	0.62725 	-0.57525 	-1.15890 	2.75965 	1.50680 	-0.21660 	-1.62295 	4.35785 	2.30050 	-0.26765 	-2.53465 	4.84630 	3.10085 	-0.62690 	-2.62810 	4.02485 	3.25785 	0.49690 	-1.84945 	2.63555 	1.65930 	0.36485 	2.20735 	2.00585 
0.90105 	0.94340 	1.79730 	0.84855 	-0.41400 	-1.06830 	3.07585 	1.77545 	-0.01955 	-1.50385 	4.68830 	2.57920 	-0.10040 	-2.37660 	5.13550 	3.38165 	-0.41735 	-2.41025 	4.27445 	3.49325 	0.70255 	-1.71760 	2.83355 	1.83895 	0.52195 	2.35215 	2.09685 
0.94720 	1.05350 	2.04805 	1.06970 	-0.24825 	-0.97185 	3.38920 	2.04120 	0.17880 	-1.38285 	5.01405 	2.85545 	0.07250 	-2.21950 	5.42010 	3.66140 	-0.20285 	-2.19525 	4.51965 	3.72575 	0.91275 	-1.57720 	3.03075 	2.01915 	0.68190 	2.49390 	2.18290 
0.99265 	1.16525 	2.29785 	1.29110 	-0.07735 	-0.86985 	3.69915 	2.30455 	0.37865 	-1.26095 	5.33430 	3.12835 	0.25195 	-2.06535 	5.69875 	3.93855 	0.01525 	-1.98520 	4.75925 	3.95405 	1.12575 	-1.42975 	3.22580 	2.19855 	0.84280 	2.63065 	2.26165 
1.03765 	1.28120 	2.54675 	1.51295 	0.09925 	-0.76255 	4.00545 	2.56610 	0.58040 	-1.13850 	5.64830 	3.39720 	0.43870 	-1.91500 	5.97065 	4.21175 	0.23605 	-1.78130 	4.99240 	4.17695 	1.34010 	-1.27680 	3.41735 	2.37580 	1.00290 	2.76080 	2.33140 
1.08275 	1.40360 	2.79490 	1.73535 	0.28160 	-0.65045 	4.30800 	2.82635 	0.78405 	-1.01525 	5.95545 	3.66150 	0.63360 	-1.76805 	6.23520 	4.48010 	0.45895 	-1.58380 	5.21855 	4.39375 	1.55445 	-1.11970 	3.60475 	2.55000 	1.16090 	2.88335 	2.39075 
1.12820 	1.53390 	3.04225 	1.95805 	0.46925 	-0.53390 	4.60665 	3.08575 	0.98950 	-0.89040 	6.25520 	3.92055 	0.83720 	-1.62320 	6.49185 	4.74275 	0.68355 	-1.39225 	5.43750 	4.60400 	1.76780 	-0.95965 	3.78720 	2.72040 	1.31550 	2.99755 	2.43910 
1.17420 	1.67265 	3.28840 	2.18030 	0.66135 	-0.41375 	4.90095 	3.34410 	1.19625 	-0.76340 	6.54695 	4.17360 	1.04985 	-1.47900 	6.74005 	4.99870 	0.90935 	-1.20605 	5.64895 	4.80730 	1.97900 	-0.79785 	3.96395 	2.88620 	1.46575 	3.10290 	2.47610 
1.22025 	1.81920 	3.53230 	2.40055 	0.85620 	-0.29095 	5.18995 	3.60080 	1.40340 	-0.63395 	6.82955 	4.41970 	1.27130 	-1.33405 	6.97895 	5.24705 	1.13555 	-1.02475 	5.85245 	5.00320 	2.18665 	-0.63550 	4.13415 	3.04660 	1.61030 	3.19880 	2.50140 
1.26580 	1.97150 	3.77245 	2.61710 	1.05185 	-0.16650 	5.47240 	3.85455 	1.60975 	-0.50210 	7.10170 	4.65750 	1.50070 	-1.18770 	7.20745 	5.48640 	1.36100 	-0.84830 	6.04740 	5.19070 	2.38920 	-0.47410 	4.29645 	3.20030 	1.74770 	3.28445 	2.51460 
1.30975 	2.12655 	4.00685 	2.82805 	1.24610 	-0.04150 	5.74640 	4.10370 	1.81390 	-0.36800 	7.36190 	4.88590 	1.73670 	-1.03995 	7.42425 	5.71545 	1.58430 	-0.67765 	6.23275 	5.36900 	2.58500 	-0.31510 	4.44955 	3.34610 	1.87635 	3.35880 	2.51515 
1.35075 	2.28055 	4.23320 	3.03120 	1.43665 	0.08300 	6.00985 	4.34625 	2.01460 	-0.23200 	7.60820 	5.10355 	1.97760 	-0.89155 	7.62780 	5.93265 	1.80360 	-0.51410 	6.40720 	5.53695 	2.77240 	-0.16010 	4.59195 	3.48240 	1.99465 	3.42075 	2.50235 
1.38760 	2.42930 	4.44890 	3.22485 	1.62160 	0.20605 	6.26055 	4.58010 	2.21035 	-0.09380 	7.83900 	5.30905 	2.22140 	-0.74330 	7.81670 	6.13680 	2.01755 	-0.35950 	6.56975 	5.69345 	2.95005 	-0.01065 	4.72225 	3.60805 	2.10120 	3.46935 	2.47585 
1.41895 	2.56835 	4.65160 	3.40735 	1.79900 	0.32690 	6.49640 	4.80310 	2.39995 	0.04695 	8.05255 	5.50125 	2.46570 	-0.59660 	7.98980 	6.32675 	2.22445 	-0.21570 	6.71925 	5.83760 	3.11690 	0.13215 	4.83970 	3.72205 	2.19505 	3.50400 	2.43545 
1.44355 	2.69390 	4.83930 	3.57755 	1.96750 	0.44485 	6.71550 	5.01340 	2.58220 	0.19135 	8.24765 	5.67930 	2.70800 	-0.45240 	8.14630 	6.50185 	2.42325 	-0.08415 	6.85500 	5.96890 	3.27250 	0.26725 	4.94380 	3.82385 	2.27580 	3.52460 	2.38165 
1.46065 	2.80285 	5.01050 	3.73475 	2.12635 	0.55940 	6.91660 	5.20970 	2.75590 	0.34045 	8.42355 	5.84255 	2.94590 	-0.31165 	8.28580 	6.66205 	2.61330 	0.03450 	6.97675 	6.08715 	3.41680 	0.39445 	5.03460 	3.91340 	2.34365 	3.53160 	2.31540 
1.46990 	2.89300 	5.16425 	3.87895 	2.27520 	0.67020 	7.09905 	5.39125 	2.92055 	0.49515 	8.58020 	5.99120 	3.17745 	-0.17485 	8.40860 	6.80750 	2.79435 	0.14075 	7.08455 	6.19260 	3.55015 	0.51390 	5.11265 	3.99110 	2.39925 	3.52600 	2.23815 
1.47150 	2.96380 	5.30065 	4.01055 	2.41475 	0.77710 	7.26295 	5.55820 	3.07585 	0.65600 	8.71805 	6.12590 	3.40120 	-0.04210 	8.51540 	6.93910 	2.96680 	0.23610 	7.17910 	6.28585 	3.67310 	0.62620 	5.17880 	4.05780 	2.44395 	3.50930 	2.15160 
1.46585 	3.01570 	5.42020 	4.13050 	2.54605 	0.88015 	7.40890 	5.71135 	3.22195 	0.82255 	8.83840 	6.24825 	3.61650 	0.08710 	8.60745 	7.05790 	3.13100 	0.32295 	7.26130 	6.36800 	3.78655 	0.73210 	5.23430 	4.11450 	2.47935 	3.48325 	2.05790 
1.45375 	3.05045 	5.52435 	4.23995 	2.67035 	0.97955 	7.53815 	5.85200 	3.35955 	0.99370 	8.94280 	6.35985 	3.82320 	0.21370 	8.68615 	7.16530 	3.28765 	0.40420 	7.33215 	6.44015 	3.89120 	0.83260 	5.28055 	4.16255 	2.50735 	3.44975 	1.95935 
1.43630 	3.07065 	5.61450 	4.34000 	2.78880 	1.07550 	7.65215 	5.98170 	3.48920 	1.16710 	9.03315 	6.46300 	4.02160 	0.33935 	8.75330 	7.26275 	3.43715 	0.48285 	7.39315 	6.50365 	3.98805 	0.92860 	5.31885 	4.20335 	2.53020 	3.41125 	1.85850 
1.41455 	3.07980 	5.69255 	4.43190 	2.90215 	1.16825 	7.75275 	6.10200 	3.61200 	1.34015 	9.11150 	6.55965 	4.21215 	0.46630 	8.81050 	7.35160 	3.57995 	0.56220 	7.44550 	6.55980 	4.07790 	1.02105 	5.35085 	4.23845 	2.55020 	3.36980 	1.75810 
1.39025 	3.08175 	5.76050 	4.51685 	3.01095 	1.25820 	7.84165 	6.21455 	3.72885 	1.50995 	9.17990 	6.65175 	4.39530 	0.59690 	8.85965 	7.43305 	3.71635 	0.64530 	7.49060 	6.60995 	4.16165 	1.11120 	5.37780 	4.26940 	2.56970 	3.32775 	1.66085 
1.36485 	3.08070 	5.82040 	4.59595 	3.11575 	1.34560 	7.92065 	6.32085 	3.84105 	1.67405 	9.24025 	6.74090 	4.57155 	0.73325 	8.90245 	7.50835 	3.84675 	0.73485 	7.52985 	6.65515 	4.24035 	1.20030 	5.40125 	4.29765 	2.59085 	3.28720 	1.56940 
1.34020 	3.08065 	5.87430 	4.67030 	3.21710 	1.43090 	7.99155 	6.42195 	3.95000 	1.83070 	9.29450 	6.82820 	4.74120 	0.87695 	8.94065 	7.57835 	3.97160 	0.83300 	7.56435 	6.69660 	4.31510 	1.28965 	5.42245 	4.32465 	2.61575 	3.25020 	1.48610 
1.31810 	3.08530 	5.92390 	4.74115 	3.31575 	1.51470 	8.05585 	6.51890 	4.05720 	1.97875 	9.34385 	6.91430 	4.90460 	1.02880 	8.97550 	7.64360 	4.09155 	0.94075 	7.59530 	6.73520 	4.38730 	1.38050 	5.44245 	4.35165 	2.64595 	3.21830 	1.41290 
1.29985 	3.09735 	5.97070 	4.80950 	3.41275 	1.59725 	8.11460 	6.61240 	4.16430 	2.11755 	9.38920 	6.99920 	5.06210 	1.18860 	9.00800 	7.70455 	4.20725 	1.05855 	7.62355 	6.77150 	4.45810 	1.47380 	5.46195 	4.37940 	2.68250 	3.19280 	1.35120 
1.28630 	3.11830 	6.01575 	4.87605 	3.50885 	1.67865 	8.16855 	6.70275 	4.27220 	2.24680 	9.43110 	7.08265 	5.21405 	1.35490 	9.03865 	7.76120 	4.31945 	1.18545 	7.64935 	6.80575 	4.52840 	1.57035 	5.48105 	4.40825 	2.72560 	3.17415 	1.30165 
1.27755 	3.14815 	6.05905 	4.94110 	3.60430 	1.75835 	8.21760 	6.78995 	4.38120 	2.36590 	9.46915 	7.16365 	5.36010 	1.52530 	9.06715 	7.81315 	4.42865 	1.32035 	7.67265 	6.83760 	4.59855 	1.67035 	5.49930 	4.43780 	2.77455 	3.16220 	1.26410 
1.27305 	3.18550 	6.10015 	5.00445 	3.69880 	1.83530 	8.26130 	6.87365 	4.49075 	2.47425 	9.50270 	7.24120 	5.49965 	1.69665 	9.09285 	7.85975 	4.53515 	1.46170 	7.69275 	6.86630 	4.66845 	1.77345 	5.51555 	4.46730 	2.82805 	3.15575 	1.23750 
1.27175 	3.22770 	6.13795 	5.06520 	3.79115 	1.90820 	8.29845 	6.95290 	4.59920 	2.57150 	9.53040 	7.31390 	5.63130 	1.86535 	9.11445 	7.90015 	4.63875 	1.60755 	7.70850 	6.89075 	4.73730 	1.87895 	5.52835 	4.49530 	2.88415 	3.15330 	1.22015 
1.27215 	3.27125 	6.17085 	5.12205 	3.87980 	1.97595 	8.32785 	7.02625 	4.70430 	2.65745 	9.55080 	7.38015 	5.75325 	2.02780 	9.13045 	7.93350 	4.73905 	1.75615 	7.71865 	6.90975 	4.80420 	1.98565 	5.53610 	4.52040 	2.94070 	3.15280 	1.21005 
1.27320 	3.31215 	6.19705 	5.17330 	3.96255 	2.03750 	8.34775 	7.09190 	4.80385 	2.73195 	9.56225 	7.43850 	5.86340 	2.18080 	9.13935 	7.95865 	4.83545 	1.90535 	7.72180 	6.92180 	4.86780 	2.09200 	5.53725 	4.54105 	2.99535 	3.15235 	1.20520 
1.27345 	3.34660 	6.21475 	5.21710 	4.03745 	2.09240 	8.35660 	7.14790 	4.89570 	2.79505 	9.56310 	7.48715 	5.95995 	2.32200 	9.13965 	7.97510 	4.92710 	2.05330 	7.71675 	6.92585 	4.92690 	2.19660 	5.53060 	4.55590 	3.04630 	3.15025 	1.20380 
1.27185 	3.37080 	6.22220 	5.25180 	4.10290 	2.14045 	8.35290 	7.19210 	4.97805 	2.84695 	9.55185 	7.52450 	6.04155 	2.44960 	9.12990 	7.98195 	5.01340 	2.19830 	7.70245 	6.92080 	4.98015 	2.29800 	5.51500 	4.56375 	3.09190 	3.14490 	1.20405 
1.26715 	3.38165 	6.21765 	5.27565 	4.15740 	2.18140 	8.33520 	7.22240 	5.04965 	2.88775 	9.52690 	7.54875 	6.10705 	2.56305 	9.10885 	7.97850 	5.09360 	2.33885 	7.67785 	6.90565 	5.02640 	2.39505 	5.48960 	4.56345 	3.13085 	3.13485 	1.20450 
1.25770 	3.37615 	6.19955 	5.28690 	4.19960 	2.21495 	8.30175 	7.23645 	5.10895 	2.91770 	9.48645 	7.55770 	6.15580 	2.66190 	9.07485 	7.96375 	5.16680 	2.47380 	7.64170 	6.87935 	5.06425 	2.48665 	5.45355 	4.55395 	3.16220 	3.11865 	1.20330 
1.24190 	3.35205 	6.16605 	5.28355 	4.22790 	2.24025 	8.25085 	7.23180 	5.15420 	2.93720 	9.42870 	7.54910 	6.18705 	2.74655 	9.02645 	7.93630 	5.23155 	2.60180 	7.59280 	6.84070 	5.09225 	2.57160 	5.40585 	4.53410 	3.18505 	3.09460 	1.19870 
1.21770 	3.30780 	6.11550 	5.26360 	4.24060 	2.25640 	8.18055 	7.20590 	5.18325 	2.94680 	9.35155 	7.52040 	6.20015 	2.81770 	8.96175 	7.89455 	5.28600 	2.72170 	7.52980 	6.78830 	5.10880 	2.64870 	5.34545 	4.50270 	3.19850 	3.06115 	1.18870 
1.18325 	3.24265 	6.04640 	5.22495 	4.23595 	2.26250 	8.08930 	7.15655 	5.19365 	2.94715 	9.25325 	7.46930 	6.19470 	2.87660 	8.87915 	7.83655 	5.32815 	2.83235 	7.45135 	6.72115 	5.11235 	2.71675 	5.27140 	4.45875 	3.20195 	3.01690 	1.17155 
1.13725 	3.15705 	5.95785 	5.16600 	4.21250 	2.25800 	7.97580 	7.08185 	5.18295 	2.93920 	9.13225 	7.39395 	6.17030 	2.92480 	8.77740 	7.76090 	5.35580 	2.93290 	7.35645 	6.63835 	5.10160 	2.77475 	5.18310 	4.40165 	3.19500 	2.96080 	1.14595 
1.07895 	3.05270 	5.84950 	5.08585 	4.16955 	2.24300 	7.83965 	6.98090 	5.14935 	2.92390 	8.98790 	7.29375 	6.12725 	2.96390 	8.65580 	7.66650 	5.36715 	3.02285 	7.24475 	6.53955 	5.07560 	2.82180 	5.08030 	4.33125 	3.17745 	2.89250 	1.11100 
1.00865 	2.93250 	5.72200 	4.98440 	4.10690 	2.21815 	7.68120 	6.85395 	5.09250 	2.90255 	8.82055 	7.16890 	6.06610 	2.99515 	8.51455 	7.55305 	5.36070 	3.10195 	7.11640 	6.42505 	5.03400 	2.85745 	4.96350 	4.24780 	3.14955 	2.81205 	1.06675 
0.92730 	2.80005 	5.57655 	4.86260 	4.02500 	2.18450 	7.50185 	6.70235 	5.01305 	2.87650 	8.63120 	7.02130 	5.98815 	3.01930 	8.35450 	7.42115 	5.33570 	3.17020 	6.97225 	6.29580 	4.97700 	2.88175 	4.83355 	4.15220 	3.11185 	2.72045 	1.01345 
0.83645 	2.65965 	5.41530 	4.72210 	3.92505 	2.14305 	7.30355 	6.52850 	4.91290 	2.84720 	8.42190 	6.85360 	5.89475 	3.03650 	8.17730 	7.27200 	5.29190 	3.22770 	6.81380 	6.15330 	4.90535 	2.89545 	4.69205 	4.04590 	3.06525 	2.61890 	0.95225 
0.73805 	2.51525 	5.24055 	4.56505 	3.80815 	2.09485 	7.08915 	6.33575 	4.79475 	2.81630 	8.19525 	6.66940 	5.78785 	3.04680 	7.98505 	7.10755 	5.23000 	3.27485 	6.64310 	5.99960 	4.82005 	2.89965 	4.54085 	3.93050 	3.01085 	2.50920 	0.88460 
0.63420 	2.37060 	5.05470 	4.39400 	3.67580 	2.04075 	6.86130 	6.12770 	4.66175 	2.78515 	7.95400 	6.47230 	5.66905 	3.04995 	7.78025 	6.93020 	5.15095 	3.31235 	6.46240 	5.83680 	4.72265 	2.89595 	4.38215 	3.80800 	2.94985 	2.39320 	0.81215 
0.52705 	2.22850 	4.86015 	4.21170 	3.52990 	1.98145 	6.62285 	5.90795 	4.51685 	2.75490 	7.70105 	6.26595 	5.54005 	3.04615 	7.56540 	6.74230 	5.05620 	3.34085 	6.27395 	5.66740 	4.61495 	2.88615 	4.21820 	3.68025 	2.88360 	2.27275 	0.73655 
0.41840 	2.09105 	4.65905 	4.02070 	3.37255 	1.91770 	6.37635 	5.67995 	4.36315 	2.72580 	7.43895 	6.05320 	5.40245 	3.03605 	7.34310 	6.54630 	4.94720 	3.36090 	6.08020 	5.49350 	4.49845 	2.87180 	4.05125 	3.54890 	2.81325 	2.14985 	0.65940 
0.30990 	1.95905 	4.45320 	3.82375 	3.20595 	1.84990 	6.12400 	5.44655 	4.20315 	2.69720 	7.17015 	5.83635 	5.25775 	3.02045 	7.11535 	6.34420 	4.82525 	3.37285 	5.88325 	5.31720 	4.37490 	2.85415 	3.88315 	3.41565 	2.73990 	2.02585 	0.58200 
0.20270 	1.83230 	4.24410 	3.62325 	3.03255 	1.77870 	5.86765 	5.21005 	4.03905 	2.66760 	6.89640 	5.61685 	5.10740 	3.00050 	6.88415 	6.13760 	4.69195 	3.37665 	5.68475 	5.14000 	4.24565 	2.83380 	3.71545 	3.28145 	2.66435 	1.90220 	0.50535 
0.09745 	1.70960 	4.03260 	3.42090 	2.85475 	1.70435 	5.60860 	4.97220 	3.87240 	2.63440 	6.61910 	5.39560 	4.95245 	2.97715 	6.65070 	5.92775 	4.54860 	3.37200 	5.48625 	4.96315 	4.11185 	2.81100 	3.54930 	3.14725 	2.58740 	1.77985 	0.43035 
-0.00555 	1.58915 	3.81935 	3.21850 	2.67465 	1.62710 	5.34775 	4.73425 	3.70440 	2.59490 	6.33945 	5.17315 	4.79375 	2.95085 	6.41615 	5.71570 	4.39690 	3.35825 	5.28875 	4.78740 	3.97465 	2.78570 	3.38570 	3.01375 	2.50965 	1.65980 	0.35770 
-0.10605 	1.46870 	3.60475 	3.01715 	2.49425 	1.54760 	5.08575 	4.49680 	3.53600 	2.54670 	6.05820 	4.94975 	4.63190 	2.92155 	6.18115 	5.50215 	4.23885 	3.33440 	5.09315 	4.61350 	3.83525 	2.75770 	3.22530 	2.88150 	2.43170 	1.54270 	0.28815 
-0.20395 	1.34630 	3.38900 	2.81775 	2.31510 	1.46675 	4.82305 	4.26030 	3.36790 	2.48795 	5.77615 	4.72565 	4.46730 	2.88810 	5.94640 	5.28810 	4.07645 	3.29985 	4.90025 	4.44185 	3.69495 	2.72670 	3.06880 	2.75095 	2.35370 	1.42925 	0.22230 
-0.29925 	1.21990 	3.17215 	2.62065 	2.13870 	1.38560 	4.55980 	4.02460 	3.20105 	2.41790 	5.49370 	4.50065 	4.30010 	2.84880 	5.71230 	5.07415 	3.91220 	3.25365 	4.71060 	4.27280 	3.55505 	2.69235 	2.91655 	2.62245 	2.27580 	1.31980 	0.16045 
-0.39195 	1.08805 	2.95390 	2.42575 	1.96580 	1.30510 	4.29590 	3.78910 	3.03615 	2.33665 	5.21110 	4.27440 	4.13035 	2.80095 	5.47905 	4.86100 	3.74790 	3.19505 	4.52445 	4.10650 	3.41670 	2.65405 	2.76880 	2.49605 	2.19770 	1.21450 	0.10275 
-0.48240 	0.94940 	2.73400 	2.23255 	1.79690 	1.22560 	4.03070 	3.55285 	2.87360 	2.24495 	4.92810 	4.04615 	3.95795 	2.74185 	5.24650 	4.64885 	3.58510 	3.12335 	4.34170 	3.94270 	3.28060 	2.61085 	2.62555 	2.37165 	2.11885 	1.11300 	0.04900 
-0.57130 	0.80355 	2.51170 	2.04020 	1.63205 	1.14695 	3.76375 	3.31465 	2.71330 	2.14410 	4.64445 	3.81520 	3.78235 	2.66865 	5.01440 	4.43780 	3.42465 	3.03760 	4.16205 	3.78100 	3.14695 	2.56180 	2.48645 	2.24885 	2.03850 	1.01480 	-0.00095 
-0.65905 	0.65065 	2.28690 	1.84780 	1.47110 	1.06870 	3.49450 	3.07355 	2.55495 	2.03585 	4.35980 	3.58080 	3.60325 	2.57925 	4.78230 	4.22775 	3.26685 	2.93675 	3.98515 	3.62085 	3.01560 	2.50575 	2.35120 	2.12720 	1.95585 	0.91940 	-0.04765 
-0.74590 	0.49205 	2.05970 	1.65490 	1.31395 	0.99040 	3.22320 	2.82925 	2.39805 	1.92240 	4.07430 	3.34300 	3.42050 	2.47240 	4.55010 	4.01885 	3.11170 	2.82005 	3.81060 	3.46175 	2.88615 	2.44190 	2.21935 	2.00645 	1.87045 	0.82605 	-0.09130 
-0.83155 	0.33040 	1.83135 	1.46170 	1.16095 	0.91205 	2.95050 	2.58250 	2.24265 	1.80620 	3.78865 	3.10270 	3.23460 	2.34825 	4.31820 	3.81150 	2.95930 	2.68715 	3.63860 	3.30375 	2.75835 	2.36985 	2.09115 	1.88655 	1.78180 	0.73435 	-0.13255 
-0.91490 	0.16930 	1.60375 	1.26940 	1.01305 	0.83430 	2.67830 	2.33500 	2.08925 	1.68975 	3.50435 	2.86180 	3.04700 	2.20775 	4.08760 	3.60685 	2.80990 	2.53860 	3.46975 	3.14725 	2.63210 	2.28980 	1.96665 	1.76775 	1.69020 	0.64405 	-0.17180 
-0.99465 	0.01305 	1.37940 	1.07970 	0.87145 	0.75815 	2.40880 	2.08925 	1.93895 	1.57525 	3.22350 	2.62310 	2.85980 	2.05245 	3.85970 	3.40625 	2.66395 	2.37600 	3.30490 	2.99300 	2.50750 	2.20255 	1.84675 	1.65065 	1.59625 	0.55540 	-0.20945 
-1.06925 	-0.13405 	1.16105 	0.89470 	0.73775 	0.68460 	2.14475 	1.84840 	1.79335 	1.46430 	2.94845 	2.38970 	2.67565 	1.88405 	3.63630 	3.21125 	2.52215 	2.20175 	3.14525 	2.84210 	2.38495 	2.10925 	1.73210 	1.53615 	1.50070 	0.46855 	-0.24580 
-1.13740 	-0.26835 	0.95120 	0.71660 	0.61330 	0.61470 	1.88865 	1.61540 	1.65385 	1.35790 	2.68145 	2.16505 	2.49720 	1.70440 	3.41890 	3.02335 	2.38485 	2.01895 	2.99185 	2.69555 	2.26475 	2.01135 	1.62345 	1.42500 	1.40465 	0.38395 	-0.28130 
-1.19810 	-0.38700 	0.75190 	0.54710 	0.49895 	0.54880 	1.64260 	1.39295 	1.52130 	1.25620 	2.42415 	1.95185 	2.32665 	1.51545 	3.20900 	2.84355 	2.25220 	1.83120 	2.84545 	2.55425 	2.14730 	1.91010 	1.52160 	1.31795 	1.30910 	0.30200 	-0.31605 
-1.25080 	-0.48845 	0.56450 	0.38745 	0.39525 	0.48700 	1.40805 	1.18295 	1.39590 	1.15890 	2.17790 	1.75235 	2.16570 	1.31965 	3.00735 	2.67260 	2.12415 	1.64230 	2.70660 	2.41865 	2.03290 	1.80665 	1.42680 	1.21575 	1.21490 	0.22305 	-0.35015 
-1.29545 	-0.57255 	0.38975 	0.23850 	0.30200 	0.42880 	1.18605 	0.98695 	1.27750 	1.06525 	1.94355 	1.56785 	2.01550 	1.12005 	2.81495 	2.51080 	2.00040 	1.45625 	2.57575 	2.28925 	1.92200 	1.70205 	1.33940 	1.11890 	1.12300 	0.14760 	-0.38340 
-1.33200 	-0.64015 	0.22790 	0.10070 	0.21890 	0.37375 	0.97715 	0.80560 	1.16545 	0.97485 	1.72145 	1.39900 	1.87690 	0.92045 	2.63220 	2.35830 	1.88065 	1.27680 	2.45310 	2.16645 	1.81510 	1.59720 	1.25975 	1.02800 	1.03435 	0.07630 	-0.41550 
-1.36065 	-0.69290 	0.07905 	-0.02570 	0.14575 	0.32155 	0.78165 	0.63965 	1.05965 	0.88735 	1.51205 	1.24595 	1.75075 	0.72505 	2.45970 	2.21530 	1.76500 	1.10760 	2.33925 	2.05085 	1.71300 	1.49335 	1.18835 	0.94405 	0.94985 	0.01030 	-0.44545 
-1.38160 	-0.73325 	-0.05685 	-0.14045 	0.08205 	0.27220 	0.59985 	0.48920 	0.95995 	0.80285 	1.31560 	1.10845 	1.63775 	0.53800 	2.29830 	2.08210 	1.65405 	0.95165 	2.23475 	1.94315 	1.61675 	1.39160 	1.12590 	0.86800 	0.87090 	-0.04915 	-0.47180 
-1.39545 	-0.76405 	-0.18020 	-0.24375 	0.02735 	0.22565 	0.43175 	0.35445 	0.86645 	0.72105 	1.13250 	0.98590 	1.53840 	0.36290 	2.14850 	1.95900 	1.54850 	0.81110 	2.14025 	1.84415 	1.52730 	1.29350 	1.07320 	0.80095 	0.79870 	-0.10035 	-0.49275 
-1.40305 	-0.78870 	-0.29155 	-0.33600 	-0.01895 	0.18190 	0.27705 	0.23480 	0.77920 	0.64175 	0.96250 	0.87720 	1.45260 	0.20250 	2.01080 	1.84620 	1.44940 	0.68740 	2.05625 	1.75435 	1.44540 	1.20015 	1.03085 	0.74385 	0.73450 	-0.14180 	-0.50665 
-1.40570 	-0.81105 	-0.39210 	-0.41815 	-0.05810 	0.14025 	0.13500 	0.12935 	0.69815 	0.56400 	0.80530 	0.78075 	1.37930 	0.05875 	1.88525 	1.74350 	1.35750 	0.58065 	1.98290 	1.67425 	1.37155 	1.11260 	0.99935 	0.69715 	0.67885 	-0.17235 	-0.51195 
-1.40515 	-0.83455 	-0.48340 	-0.49165 	-0.09140 	0.10010 	0.00425 	0.03655 	0.62320 	0.48710 	0.66000 	0.69485 	1.31685 	-0.06775 	1.77150 	1.65060 	1.27350 	0.49000 	1.92000 	1.60385 	1.30595 	1.03125 	0.97845 	0.66110 	0.63190 	-0.19120 	-0.50780 
-1.40290 	-0.86245 	-0.56715 	-0.55800 	-0.12015 	0.06045 	-0.11675 	-0.04560 	0.55405 	0.41030 	0.52545 	0.61710 	1.26265 	-0.17685 	1.66895 	1.56690 	1.19790 	0.41330 	1.86695 	1.54290 	1.24865 	0.95625 	0.96780 	0.63530 	0.59340 	-0.19835 	-0.49395 
-1.40050 	-0.89730 	-0.64520 	-0.61895 	-0.14570 	0.02085 	-0.22975 	-0.11935 	0.49020 	0.33330 	0.40020 	0.54555 	1.21415 	-0.26920 	1.57665 	1.49175 	1.13100 	0.34805 	1.82290 	1.49105 	1.19955 	0.88750 	0.96650 	0.61905 	0.56235 	-0.19425 	-0.47100 
-1.39925 	-0.94045 	-0.71950 	-0.67630 	-0.16950 	-0.01950 	-0.33675 	-0.18700 	0.43115 	0.25645 	0.28290 	0.47800 	1.16925 	-0.34590 	1.49360 	1.42425 	1.07280 	0.29100 	1.78675 	1.44765 	1.15820 	0.82430 	0.97350 	0.61150 	0.53765 	-0.18005 	-0.43990 
-1.40000 	-0.99240 	-0.79170 	-0.73180 	-0.19335 	-0.06115 	-0.43955 	-0.25105 	0.37590 	0.18060 	0.17185 	0.41270 	1.12605 	-0.40790 	1.41840 	1.36340 	1.02280 	0.23920 	1.75700 	1.41180 	1.12380 	0.76590 	0.98725 	0.61125 	0.51800 	-0.15710 	-0.40225 
-1.40350 	-1.05270 	-0.86360 	-0.78730 	-0.21910 	-0.10470 	-0.54010 	-0.31355 	0.32335 	0.10695 	0.06550 	0.34815 	1.08350 	-0.45635 	1.34960 	1.30800 	0.97975 	0.19040 	1.73215 	1.38230 	1.09485 	0.71125 	1.00590 	0.61670 	0.50180 	-0.12735 	-0.35975 
-1.41045 	-1.12025 	-0.93685 	-0.84460 	-0.24885 	-0.15075 	-0.64030 	-0.37675 	0.27210 	0.03710 	-0.03795 	0.28295 	1.04045 	-0.49215 	1.28550 	1.25650 	0.94170 	0.14325 	1.71030 	1.35760 	1.06965 	0.65915 	1.02760 	0.62610 	0.48745 	-0.09280 	-0.31430 
-1.42145 	-1.19320 	-1.01290 	-0.90535 	-0.28470 	-0.19980 	-0.74175 	-0.44225 	0.22040 	-0.02745 	-0.13990 	0.21615 	0.99575 	-0.51615 	1.22425 	1.20715 	0.90610 	0.09790 	1.68940 	1.33600 	1.04580 	0.60870 	1.05020 	0.63745 	0.47340 	-0.05560 	-0.26780 
-1.43665 	-1.26925 	-1.09270 	-0.97075 	-0.32840 	-0.25210 	-0.84575 	-0.51130 	0.16650 	-0.08520 	-0.24175 	0.14710 	0.94810 	-0.52885 	1.16425 	1.15835 	0.87060 	0.05595 	1.66775 	1.31590 	1.02120 	0.55935 	1.07200 	0.64925 	0.45855 	-0.01750 	-0.22225 
-1.45600 	-1.34585 	-1.17675 	-1.04160 	-0.38120 	-0.30760 	-0.95300 	-0.58475 	0.10875 	-0.13505 	-0.34440 	0.07550 	0.89615 	-0.53060 	1.10420 	1.10890 	0.83285 	0.02005 	1.64405 	1.29595 	0.99425 	0.51115 	1.09175 	0.66035 	0.44205 	0.02005 	-0.17905 
-1.47890 	-1.42015 	-1.26485 	-1.11820 	-0.44395 	-0.36570 	-1.06370 	-0.66270 	0.04535 	-0.17635 	-0.44820 	0.00115 	0.83840 	-0.52155 	1.04330 	1.05785 	0.79110 	-0.00655 	1.61735 	1.27515 	0.96395 	0.46450 	1.10895 	0.67020 	0.42365 	0.05610 	-0.13915 
-1.50460 	-1.48945 	-1.35655 	-1.20035 	-0.51670 	-0.42540 	-1.17765 	-0.74495 	-0.02480 	-0.20900 	-0.55320 	-0.07580 	0.77365 	-0.50225 	0.98120 	1.00495 	0.74420 	-0.02100 	1.58745 	1.25325 	0.92995 	0.42015 	1.12355 	0.67895 	0.40370 	0.09045 	-0.10300 
-1.53200 	-1.55165 	-1.45095 	-1.28735 	-0.59885 	-0.48545 	-1.29410 	-0.83080 	-0.10185 	-0.23360 	-0.65910 	-0.15500 	0.70100 	-0.47340 	0.91785 	0.95030 	0.69165 	-0.02135 	1.55445 	1.22990 	0.89255 	0.37860 	1.13630 	0.68715 	0.38265 	0.12330 	-0.07040 
-1.56015 	-1.60530 	-1.54690 	-1.37795 	-0.68850 	-0.54435 	-1.41220 	-0.91910 	-0.18510 	-0.25165 	-0.76520 	-0.23585 	0.62040 	-0.43655 	0.85365 	0.89435 	0.63350 	-0.00735 	1.51900 	1.20545 	0.85255 	0.34015 	1.14800 	0.69570 	0.36155 	0.15525 	-0.04070 
-1.58815 	-1.65005 	-1.64315 	-1.47050 	-0.78310 	-0.60080 	-1.53070 	-1.00830 	-0.27210 	-0.26530 	-0.87075 	-0.31750 	0.53285 	-0.39390 	0.78935 	0.83800 	0.57025 	0.01920 	1.48185 	1.18035 	0.81090 	0.30490 	1.16010 	0.70570 	0.34145 	0.18725 	-0.01305 
-1.61545 	-1.68620 	-1.73845 	-1.56295 	-0.87940 	-0.65375 	-1.64830 	-1.09665 	-0.36015 	-0.27710 	-0.97465 	-0.39885 	0.43995 	-0.34830 	0.72565 	0.78235 	0.50315 	0.05525 	1.44405 	1.15510 	0.76885 	0.27265 	1.17360 	0.71830 	0.32350 	0.22040 	0.01360 
-1.64155 	-1.71515 	-1.83190 	-1.65375 	-0.97430 	-0.70225 	-1.76385 	-1.18260 	-0.44625 	-0.28990 	-1.07610 	-0.47890 	0.34345 	-0.30285 	0.66345 	0.72845 	0.43350 	0.09660 	1.40665 	1.13040 	0.72760 	0.24295 	1.18985 	0.73455 	0.30885 	0.25570 	0.04050 
-1.66630 	-1.73900 	-1.92280 	-1.74150 	-1.06515 	-0.74570 	-1.87660 	-1.26510 	-0.52810 	-0.30610 	-1.17460 	-0.55685 	0.24500 	-0.26035 	0.60340 	0.67720 	0.36275 	0.13870 	1.37045 	1.10670 	0.68825 	0.21525 	1.20960 	0.75525 	0.29855 	0.29390 	0.06845 
-1.68990 	-1.76070 	-2.01130 	-1.82585 	-1.15020 	-0.78395 	-1.98640 	-1.34400 	-0.60455 	-0.32755 	-1.26995 	-0.63275 	0.14565 	-0.22315 	0.54560 	0.62890 	0.29205 	0.17720 	1.33585 	1.08415 	0.65140 	0.18875 	1.23325 	0.78060 	0.29315 	0.33560 	0.09820 
-1.71275 	-1.78340 	-2.09815 	-1.90700 	-1.22890 	-0.81705 	-2.09380 	-1.42010 	-0.67545 	-0.35580 	-1.36270 	-0.70735 	0.04565 	-0.19305 	0.48975 	0.58330 	0.22200 	0.20815 	1.30280 	1.06240 	0.61705 	0.16270 	1.26075 	0.81035 	0.29285 	0.38070 	0.13025 
-1.73565 	-1.81040 	-2.18440 	-1.98605 	-1.30165 	-0.84535 	-2.19980 	-1.49490 	-0.74200 	-0.39175 	-1.45400 	-0.78195 	-0.05540 	-0.17120 	0.43505 	0.53960 	0.15280 	0.22865 	1.27085 	1.04090 	0.58490 	0.13630 	1.29150 	0.84390 	0.29740 	0.42900 	0.16485 
-1.75940 	-1.84470 	-2.27170 	-2.06430 	-1.36975 	-0.86960 	-2.30555 	-1.57030 	-0.80595 	-0.43625 	-1.54510 	-0.85815 	-0.15785 	-0.15835 	0.38040 	0.49660 	0.08440 	0.23670 	1.23920 	1.01880 	0.55430 	0.10890 	1.32480 	0.88030 	0.30620 	0.47995 	0.20195 
-1.78480 	-1.88840 	-2.36125 	-2.14335 	-1.43505 	-0.89080 	-2.41250 	-1.64810 	-0.86960 	-0.48955 	-1.63700 	-0.93735 	-0.26205 	-0.15475 	0.32485 	0.45320 	0.01675 	0.23150 	1.20715 	0.99540 	0.52450 	0.08025 	1.35980 	0.91860 	0.31860 	0.53285 	0.24155 
-1.81220 	-1.94235 	-2.45400 	-2.22420 	-1.49935 	-0.90985 	-2.52105 	-1.72935 	-0.93505 	-0.55100 	-1.73040 	-1.02020 	-0.36760 	-0.16030 	0.26780 	0.40860 	-0.04985 	0.21330 	1.17425 	0.97045 	0.49530 	0.05030 	1.39575 	0.95830 	0.33410 	0.58740 	0.28355 
-1.84180 	-2.00595 	-2.54980 	-2.30715 	-1.56365 	-0.92745 	-2.63130 	-1.81445 	-1.00365 	-0.61945 	-1.82515 	-1.10630 	-0.47350 	-0.17470 	0.20930 	0.36265 	-0.11475 	0.18315 	1.14055 	0.94420 	0.46700 	0.01960 	1.43265 	0.99920 	0.35250 	0.64330 	0.32770 
-1.87275 	-2.07715 	-2.64780 	-2.39150 	-1.62795 	-0.94415 	-2.74205 	-1.90230 	-1.07560 	-0.69260 	-1.92020 	-1.19435 	-0.57785 	-0.19695 	0.15030 	0.31610 	-0.17690 	0.14295 	1.10685 	0.91770 	0.44040 	-0.01095 	1.47065 	1.04150 	0.37405 	0.70085 	0.37430 
-1.90400 	-2.15260 	-2.74590 	-2.47580 	-1.69145 	-0.96005 	-2.85145 	-1.99120 	-1.15025 	-0.76780 	-2.01370 	-1.28200 	-0.67785 	-0.22555 	0.09230 	0.27015 	-0.23480 	0.09545 	1.07430 	0.89240 	0.41710 	-0.03995 	1.51040 	1.08600 	0.39935 	0.76050 	0.42380 
-1.93385 	-2.22815 	-2.84185 	-2.55805 	-1.75255 	-0.97535 	-2.95715 	-2.07865 	-1.22580 	-0.84235 	-2.10355 	-1.36680 	-0.77045 	-0.25860 	0.03705 	0.22635 	-0.28695 	0.04415 	1.04440 	0.86990 	0.39870 	-0.06555 	1.55285 	1.13355 	0.42920 	0.82305 	0.47655 
-1.96055 	-2.29950 	-2.93300 	-2.63610 	-1.80935 	-0.98985 	-3.05685 	-2.16205 	-1.30040 	-0.91395 	-2.18770 	-1.44620 	-0.85225 	-0.29400 	-0.01360 	0.18610 	-0.33190 	-0.00730 	1.01845 	0.85175 	0.38660 	-0.08610 	1.59865 	1.18490 	0.46435 	0.88895 	0.53305 
-1.98280 	-2.36280 	-3.01725 	-2.70825 	-1.86005 	-1.00365 	-3.14850 	-2.23950 	-1.37185 	-0.98060 	-2.26435 	-1.51840 	-0.92070 	-0.32950 	-0.05840 	0.15050 	-0.36865 	-0.05510 	0.99745 	0.83880 	0.38180 	-0.10030 	1.64790 	1.24030 	0.50505 	0.95835 	0.59320 
-1.99965 	-2.41505 	-3.09310 	-2.77325 	-1.90340 	-1.01665 	-3.23095 	-2.30970 	-1.43860 	-1.04070 	-2.33265 	-1.58250 	-0.97390 	-0.36355 	-0.09660 	0.11970 	-0.39685 	-0.09620 	0.98145 	0.83135 	0.38440 	-0.10720 	1.70010 	1.29935 	0.55095 	1.03065 	0.65655 
-2.01085 	-2.45455 	-3.16000 	-2.83090 	-1.93845 	-1.02920 	-3.30410 	-2.37270 	-1.49950 	-1.09280 	-2.39255 	-1.63860 	-1.01150 	-0.39515 	-0.12850 	0.09355 	-0.41660 	-0.12845 	0.96995 	0.82860 	0.39390 	-0.10715 	1.75395 	1.36110 	0.60120 	1.10450 	0.72200 
-2.01715 	-2.48135 	-3.21850 	-2.88195 	-1.96545 	-1.04195 	-3.36870 	-2.42925 	-1.55405 	-1.13625 	-2.44500 	-1.68790 	-1.03465 	-0.42395 	-0.15505 	0.07085 	-0.42870 	-0.15130 	0.96165 	0.82915 	0.40880 	-0.10095 	1.80760 	1.42375 	0.65405 	1.17800 	0.78790 
-2.01990 	-2.49675 	-3.26995 	-2.92765 	-1.98510 	-1.05600 	-3.42635 	-2.48135 	-1.60230 	-1.17100 	-2.49150 	-1.73230 	-1.04565 	-0.45050 	-0.17800 	0.05020 	-0.43450 	-0.16530 	0.95465 	0.83105 	0.42730 	-0.09060 	1.85865 	1.48510 	0.70735 	1.24870 	0.85220 
-2.02090 	-2.50335 	-3.31615 	-2.96975 	-1.99855 	-1.07255 	-3.47905 	-2.53095 	-1.64445 	-1.19740 	-2.53380 	-1.77395 	-1.04790 	-0.47585 	-0.19920 	0.03000 	-0.43550 	-0.17220 	0.94700 	0.83230 	0.44715 	-0.07815 	1.90480 	1.54290 	0.75885 	1.31405 	0.91285 
-2.02190 	-2.50450 	-3.35900 	-3.01005 	-2.00720 	-1.09295 	-3.52870 	-2.58030 	-1.68095 	-1.21665 	-2.57370 	-1.81485 	-1.04550 	-0.50145 	-0.22045 	0.00890 	-0.43350 	-0.17460 	0.93695 	0.83080 	0.46640 	-0.06610 	1.94390 	1.59490 	0.80620 	1.37175 	0.96780 
-2.02450 	-2.50370 	-3.40020 	-3.05020 	-2.01280 	-1.11785 	-3.57710 	-2.63120 	-1.71220 	-1.22990 	-2.61260 	-1.85670 	-1.04245 	-0.52860 	-0.24320 	-0.01415 	-0.42995 	-0.17520 	0.92295 	0.82510 	0.48310 	-0.05670 	1.97445 	1.63940 	0.84760 	1.42005 	1.01555 
-2.03005 	-2.50445 	-3.44110 	-3.09145 	-2.01680 	-1.14745 	-3.62545 	-2.68495 	-1.73860 	-1.23845 	-2.65145 	-1.90055 	-1.04210 	-0.55840 	-0.26850 	-0.03960 	-0.42670 	-0.17670 	0.90415 	0.81425 	0.49585 	-0.05170 	1.99560 	1.67530 	0.88160 	1.45795 	1.05510 
-2.03920 	-2.51000 	-3.48265 	-3.13450 	-2.02055 	-1.18110 	-3.67455 	-2.74220 	-1.76010 	-1.24320 	-2.69055 	-1.94700 	-1.04645 	-0.59185 	-0.29685 	-0.06775 	-0.42495 	-0.18145 	0.88025 	0.79780 	0.50355 	-0.05235 	2.00705 	1.70200 	0.90750 	1.48505 	1.08610 
-2.05235 	-2.52260 	-3.52520 	-3.17950 	-2.02485 	-1.21765 	-3.72435 	-2.80275 	-1.77645 	-1.24485 	-2.72985 	-1.99600 	-1.05620 	-0.62960 	-0.32815 	-0.09840 	-0.42595 	-0.19130 	0.85135 	0.77585 	0.50550 	-0.05960 	2.00930 	1.71940 	0.92515 	1.50165 	1.10880 
-2.06945 	-2.54410 	-3.56875 	-3.22600 	-2.03005 	-1.25540 	-3.77445 	-2.86555 	-1.78710 	-1.24445 	-2.76855 	-2.04670 	-1.07040 	-0.67220 	-0.36205 	-0.13105 	-0.43060 	-0.20785 	0.81805 	0.74880 	0.50125 	-0.07350 	2.00275 	1.72785 	0.93455 	1.50850 	1.12360 
-2.08995 	-2.57505 	-3.61285 	-3.27290 	-2.03605 	-1.29285 	-3.82395 	-2.92895 	-1.79175 	-1.24295 	-2.80590 	-2.09765 	-1.08735 	-0.72000 	-0.39795 	-0.16500 	-0.43915 	-0.23235 	0.78100 	0.71730 	0.49070 	-0.09425 	1.98830 	1.72790 	0.93630 	1.50640 	1.13105 
-2.11335 	-2.61555 	-3.65660 	-3.31910 	-2.04285 	-1.32850 	-3.87185 	-2.99090 	-1.79030 	-1.24160 	-2.84055 	-2.14730 	-1.10485 	-0.77310 	-0.43510 	-0.19950 	-0.45190 	-0.26595 	0.74085 	0.68205 	0.47390 	-0.12155 	1.96670 	1.71990 	0.93065 	1.49605 	1.13135 
-2.13860 	-2.66435 	-3.69910 	-3.36320 	-2.05010 	-1.36120 	-3.91665 	-3.04895 	-1.78310 	-1.24165 	-2.87135 	-2.19350 	-1.12070 	-0.83140 	-0.47260 	-0.23370 	-0.46855 	-0.30980 	0.69855 	0.64370 	0.45125 	-0.15485 	1.93860 	1.70435 	0.91815 	1.47825 	1.12470 
-2.16450 	-2.71950 	-3.73890 	-3.40360 	-2.05730 	-1.38990 	-3.95705 	-3.10090 	-1.77030 	-1.24410 	-2.89700 	-2.23420 	-1.13255 	-0.89440 	-0.50955 	-0.26655 	-0.48820 	-0.36435 	0.65495 	0.60320 	0.42350 	-0.19355 	1.90465 	1.68170 	0.89905 	1.45350 	1.11115 
-2.18945 	-2.77805 	-3.77430 	-3.43850 	-2.06355 	-1.41395 	-3.99125 	-3.14400 	-1.75185 	-1.24950 	-2.91615 	-2.26720 	-1.13785 	-0.96100 	-0.54485 	-0.29695 	-0.50960 	-0.42935 	0.61120 	0.56160 	0.39175 	-0.23630 	1.86575 	1.65255 	0.87400 	1.42250 	1.09115 
-2.21170 	-2.83610 	-3.80335 	-3.46620 	-2.06820 	-1.43255 	-4.01745 	-3.17565 	-1.72760 	-1.25765 	-2.92725 	-2.28995 	-1.13410 	-1.02970 	-0.57720 	-0.32360 	-0.53090 	-0.50345 	0.56845 	0.52020 	0.35755 	-0.28180 	1.82280 	1.61755 	0.84390 	1.38590 	1.06510 
-2.22945 	-2.88960 	-3.82415 	-3.48490 	-2.07040 	-1.44525 	-4.03410 	-3.19370 	-1.69730 	-1.26820 	-2.92920 	-2.30035 	-1.11900 	-1.09850 	-0.60535 	-0.34510 	-0.55020 	-0.58435 	0.52805 	0.48025 	0.32240 	-0.32810 	1.77685 	1.57770 	0.80965 	1.34465 	1.03400 
-2.24095 	-2.93460 	-3.83505 	-3.49335 	-2.06980 	-1.45170 	-4.03960 	-3.19630 	-1.66135 	-1.28040 	-2.92120 	-2.29650 	-1.09115 	-1.16505 	-0.62820 	-0.36040 	-0.56560 	-0.66905 	0.49110 	0.44305 	0.28785 	-0.37335 	1.72885 	1.53400 	0.77260 	1.29960 	0.99865 
-2.24510 	-2.96750 	-3.83485 	-3.49060 	-2.06610 	-1.45210 	-4.03315 	-3.18240 	-1.62045 	-1.29315 	-2.90275 	-2.27765 	-1.05005 	-1.22695 	-0.64510 	-0.36900 	-0.57600 	-0.75380 	0.45825 	0.40940 	0.25510 	-0.41605 	1.67965 	1.48725 	0.73400 	1.25155 	0.96000 
-2.24140 	-2.98575 	-3.82320 	-3.47630 	-2.05925 	-1.44670 	-4.01440 	-3.15170 	-1.57575 	-1.30555 	-2.87435 	-2.24370 	-0.99625 	-1.28180 	-0.65600 	-0.37090 	-0.58085 	-0.83475 	0.42990 	0.37970 	0.22470 	-0.45480 	1.62965 	1.43840 	0.69485 	1.20125 	0.91885 
-2.22985 	-2.98810 	-3.80035 	-3.45080 	-2.04940 	-1.43620 	-3.98395 	-3.10505 	-1.52880 	-1.31630 	-2.83680 	-2.19570 	-0.93130 	-1.32730 	-0.66110 	-0.36700 	-0.58045 	-0.90825 	0.40570 	0.35380 	0.19685 	-0.48865 	1.57905 	1.38800 	0.65630 	1.14930 	0.87580 
-2.21130 	-2.97445 	-3.76740 	-3.41495 	-2.03695 	-1.42095 	-3.94280 	-3.04395 	-1.48120 	-1.32415 	-2.79175 	-2.13565 	-0.85730 	-1.36195 	-0.66140 	-0.35870 	-0.57550 	-0.97090 	0.38505 	0.33125 	0.17115 	-0.51715 	1.52775 	1.33645 	0.61895 	1.09595 	0.83125 
-2.18725 	-2.94630 	-3.72605 	-3.37065 	-2.02250 	-1.40175 	-3.89300 	-2.97120 	-1.43450 	-1.32765 	-2.74105 	-2.06625 	-0.77715 	-1.38460 	-0.65815 	-0.34765 	-0.56745 	-1.01995 	0.36700 	0.31115 	0.14710 	-0.54015 	1.47520 	1.28410 	0.58335 	1.04115 	0.78520 
-2.15980 	-2.90645 	-3.67900 	-3.32040 	-2.00725 	-1.37935 	-3.83695 	-2.89010 	-1.39030 	-1.32565 	-2.68720 	-1.99095 	-0.69410 	-1.39505 	-0.65290 	-0.33590 	-0.55745 	-1.05390 	0.35020 	0.29230 	0.12390 	-0.55795 	1.42090 	1.23080 	0.54940 	0.98480 	0.73750 
-2.13145 	-2.85890 	-3.62905 	-3.26705 	-1.99240 	-1.35455 	-3.77755 	-2.80475 	-1.34995 	-1.31705 	-2.63275 	-1.91380 	-0.61150 	-1.39405 	-0.64740 	-0.32535 	-0.54680 	-1.07220 	0.33315 	0.27365 	0.10110 	-0.57100 	1.36395 	1.17640 	0.51705 	0.92620 	0.68770 
-2.10460 	-2.80825 	-3.57925 	-3.21365 	-1.97905 	-1.32815 	-3.71760 	-2.71905 	-1.31425 	-1.30110 	-2.58030 	-1.83860 	-0.53270 	-1.38235 	-0.64310 	-0.31765 	-0.53640 	-1.07520 	0.31475 	0.25400 	0.07815 	-0.57970 	1.30365 	1.12070 	0.48600 	0.86490 	0.63525 
-2.08155 	-2.75885 	-3.53215 	-3.16265 	-1.96765 	-1.30080 	-3.65955 	-2.63675 	-1.28365 	-1.27715 	-2.53195 	-1.76885 	-0.46040 	-1.36115 	-0.64130 	-0.31405 	-0.52675 	-1.06415 	0.29400 	0.23280 	0.05490 	-0.58430 	1.23955 	1.06355 	0.45625 	0.80060 	0.57990 
-2.06390 	-2.71460 	-3.48980 	-3.11600 	-1.95850 	-1.27285 	-3.60530 	-2.56070 	-1.25825 	-1.24485 	-2.48930 	-1.70730 	-0.39680 	-1.33120 	-0.64265 	-0.31505 	-0.51765 	-1.04060 	0.27050 	0.21000 	0.03185 	-0.58470 	1.17190 	1.00540 	0.42795 	0.73340 	0.52185 
-2.05235 	-2.67860 	-3.45305 	-3.07460 	-1.95100 	-1.24400 	-3.55570 	-2.49275 	-1.23760 	-1.20385 	-2.45310 	-1.65555 	-0.34280 	-1.29265 	-0.64725 	-0.32055 	-0.50865 	-1.00605 	0.24440 	0.18600 	0.00960 	-0.58020 	1.10130 	0.94685 	0.40170 	0.66400 	0.46160 
-2.04695 	-2.65250 	-3.42215 	-3.03865 	-1.94430 	-1.21380 	-3.51075 	-2.43350 	-1.22075 	-1.15420 	-2.42310 	-1.61395 	-0.29825 	-1.24525 	-0.65430 	-0.32960 	-0.49855 	-0.96195 	0.21660 	0.16160 	-0.01055 	-0.57015 	1.02890 	0.88905 	0.37840 	0.59345 	0.40030 
-2.04700 	-2.63680 	-3.39640 	-3.00720 	-1.93705 	-1.18130 	-3.46975 	-2.38220 	-1.20615 	-1.09620 	-2.39855 	-1.58160 	-0.26175 	-1.18845 	-0.66285 	-0.34075 	-0.48580 	-0.90950 	0.18830 	0.13825 	-0.02735 	-0.55340 	0.95615 	0.83315 	0.35895 	0.52330 	0.33925 
-2.05155 	-2.63085 	-3.37455 	-2.97910 	-1.92775 	-1.14560 	-3.43105 	-2.33730 	-1.19200 	-1.03075 	-2.37775 	-1.55655 	-0.23105 	-1.12195 	-0.67115 	-0.35200 	-0.46865 	-0.84960 	0.16095 	0.11725 	-0.03915 	-0.52920 	0.88480 	0.78065 	0.34420 	0.45510 	0.28010 
-2.05945 	-2.63340 	-3.35495 	-2.95270 	-1.91515 	-1.10620 	-3.39320 	-2.29655 	-1.17665 	-0.95900 	-2.35905 	-1.53620 	-0.20390 	-1.04605 	-0.67780 	-0.36140 	-0.44545 	-0.78335 	0.13600 	0.10005 	-0.04470 	-0.49700 	0.81645 	0.73275 	0.33450 	0.39030 	0.22445 
-2.06955 	-2.64235 	-3.33630 	-2.92685 	-1.89865 	-1.06285 	-3.35455 	-2.25780 	-1.15920 	-0.88220 	-2.34080 	-1.51815 	-0.17825 	-0.96200 	-0.68155 	-0.36705 	-0.41485 	-0.71200 	0.11460 	0.08755 	-0.04315 	-0.45695 	0.75230 	0.69020 	0.33000 	0.33000 	0.17360 
-2.08075 	-2.65560 	-3.31745 	-2.90065 	-1.87820 	-1.01605 	-3.31395 	-2.21960 	-1.13980 	-0.80175 	-2.32180 	-1.50050 	-0.15310 	-0.87220 	-0.68145 	-0.36780 	-0.37640 	-0.63705 	0.09745 	0.08035 	-0.03425 	-0.40965 	0.69330 	0.65325 	0.33025 	0.27490 	0.12850 
-2.09210 	-2.67075 	-3.29765 	-2.87370 	-1.85455 	-0.96650 	-3.27080 	-2.18090 	-1.11885 	-0.71905 	-2.30140 	-1.48210 	-0.12830 	-0.77935 	-0.67725 	-0.36320 	-0.33045 	-0.56025 	0.08475 	0.07840 	-0.01840 	-0.35625 	0.63985 	0.62195 	0.33450 	0.22510 	0.08965 
-2.10270 	-2.68540 	-3.27650 	-2.84600 	-1.82815 	-0.91560 	-3.22490 	-2.14130 	-1.09715 	-0.63585 	-2.27930 	-1.46260 	-0.10435 	-0.68650 	-0.66920 	-0.35315 	-0.27820 	-0.48365 	0.07630 	0.08130 	0.00340 	-0.29845 	0.59200 	0.59565 	0.34160 	0.18035 	0.05720 
-2.11170 	-2.69715 	-3.25365 	-2.81730 	-1.79970 	-0.86475 	-3.17630 	-2.10100 	-1.07500 	-0.55405 	-2.25575 	-1.44200 	-0.08220 	-0.59630 	-0.65780 	-0.33835 	-0.22145 	-0.40880 	0.07160 	0.08830 	0.02995 	-0.23805 	0.54960 	0.57375 	0.35020 	0.14010 	0.03065 
-2.11825 	-2.70385 	-3.22885 	-2.78760 	-1.76950 	-0.81560 	-3.12545 	-2.05990 	-1.05285 	-0.47590 	-2.23095 	-1.42050 	-0.06290 	-0.51110 	-0.64350 	-0.31955 	-0.16220 	-0.33705 	0.07020 	0.09865 	0.05995 	-0.17685 	0.51250 	0.55545 	0.35925 	0.10365 	0.00940 
-2.12170 	-2.70360 	-3.20190 	-2.75650 	-1.73745 	-0.76910 	-3.07265 	-2.01830 	-1.03080 	-0.40350 	-2.20525 	-1.39810 	-0.04745 	-0.43250 	-0.62690 	-0.29760 	-0.10270 	-0.26920 	0.07145 	0.11175 	0.09205 	-0.11635 	0.48030 	0.54025 	0.36770 	0.07045 	-0.00755 
-2.12155 	-2.69495 	-3.17265 	-2.72375 	-1.70355 	-0.72625 	-3.01850 	-1.97615 	-1.00880 	-0.33865 	-2.17885 	-1.37470 	-0.03660 	-0.36155 	-0.60865 	-0.27345 	-0.04480 	-0.20565 	0.07485 	0.12690 	0.12515 	-0.05775 	0.45300 	0.52745 	0.37510 	0.03995 	-0.02115 
-2.11735 	-2.67740 	-3.14105 	-2.68905 	-1.66755 	-0.68750 	-2.96340 	-1.93345 	-0.98710 	-0.28260 	-2.15235 	-1.34990 	-0.03050 	-0.29870 	-0.58900 	-0.24790 	0.00985 	-0.14620 	0.07990 	0.14385 	0.15840 	-0.00185 	0.43040 	0.51690 	0.38110 	0.01185 	-0.03225 
-2.10920 	-2.65105 	-3.10705 	-2.65210 	-1.62910 	-0.65325 	-2.90785 	-1.89030 	-0.96555 	-0.23600 	-2.12585 	-1.32345 	-0.02905 	-0.24410 	-0.56840 	-0.22195 	0.06000 	-0.09060 	0.08630 	0.16210 	0.19070 	0.05090 	0.41230 	0.50810 	0.38560 	-0.01400 	-0.04180 
-2.09760 	-2.61700 	-3.07100 	-2.61290 	-1.58790 	-0.62415 	-2.85240 	-1.84675 	-0.94425 	-0.19890 	-2.09990 	-1.29505 	-0.03150 	-0.19725 	-0.54730 	-0.19625 	0.10480 	-0.03840 	0.09365 	0.18115 	0.22120 	0.10000 	0.39850 	0.50075 	0.38860 	-0.03775 	-0.05010 
-2.08325 	-2.57730 	-3.03350 	-2.57180 	-1.54370 	-0.60080 	-2.79780 	-1.80335 	-0.92335 	-0.17095 	-2.07500 	-1.26460 	-0.03700 	-0.15780 	-0.52605 	-0.17160 	0.14370 	0.01080 	0.10155 	0.20070 	0.24880 	0.14530 	0.38835 	0.49450 	0.39015 	-0.05905 	-0.05745 
-2.06740 	-2.53465 	-2.99550 	-2.52935 	-1.49645 	-0.58365 	-2.74505 	-1.76070 	-0.90300 	-0.15120 	-2.05180 	-1.23260 	-0.04500 	-0.12500 	-0.50535 	-0.14895 	0.17600 	0.05725 	0.10945 	0.22000 	0.27245 	0.18650 	0.38140 	0.48905 	0.39030 	-0.07785 	-0.06360 
-2.05140 	-2.49255 	-2.95815 	-2.48665 	-1.44665 	-0.57305 	-2.69520 	-1.72010 	-0.88380 	-0.13855 	-2.03115 	-1.19970 	-0.05500 	-0.09830 	-0.48590 	-0.12910 	0.20130 	0.10070 	0.11690 	0.23850 	0.29125 	0.22340 	0.37685 	0.48410 	0.38915 	-0.09365 	-0.06800 
-2.03690 	-2.45460 	-2.92300 	-2.44485 	-1.39500 	-0.56930 	-2.64955 	-1.68275 	-0.86610 	-0.13195 	-2.01405 	-1.16710 	-0.06700 	-0.07740 	-0.46865 	-0.11300 	0.21920 	0.14090 	0.12330 	0.25565 	0.30445 	0.25560 	0.37425 	0.47960 	0.38670 	-0.10625 	-0.07010 
-2.02500 	-2.42440 	-2.89145 	-2.40515 	-1.34220 	-0.57245 	-2.60925 	-1.65000 	-0.85040 	-0.13095 	-2.00130 	-1.13615 	-0.08100 	-0.06215 	-0.45440 	-0.10135 	0.22930 	0.17775 	0.12800 	0.27070 	0.31175 	0.28280 	0.37290 	0.47515 	0.38315 	-0.11565 	-0.06965 
-2.01680 	-2.40475 	-2.86480 	-2.36870 	-1.28935 	-0.58240 	-2.57520 	-1.62295 	-0.83690 	-0.13550 	-1.99390 	-1.10850 	-0.09685 	-0.05250 	-0.44405 	-0.09495 	0.23135 	0.21120 	0.13040 	0.28310 	0.31295 	0.30480 	0.37230 	0.47075 	0.37840 	-0.12190 	-0.06670 
-2.01270 	-2.39775 	-2.84395 	-2.33625 	-1.23745 	-0.59850 	-2.54795 	-1.60230 	-0.82570 	-0.14625 	-1.99240 	-1.08570 	-0.11430 	-0.04810 	-0.43855 	-0.09460 	0.22525 	0.24145 	0.12985 	0.29225 	0.30810 	0.32135 	0.37190 	0.46600 	0.37250 	-0.12550 	-0.06155 
-2.01280 	-2.40415 	-2.82945 	-2.30830 	-1.18735 	-0.61975 	-2.52800 	-1.58865 	-0.81650 	-0.16385 	-1.99730 	-1.06925 	-0.13255 	-0.04835 	-0.43855 	-0.10075 	0.21095 	0.26895 	0.12590 	0.29750 	0.29735 	0.33240 	0.37125 	0.46060 	0.36515 	-0.12690 	-0.05490 
-2.01655 	-2.42375 	-2.82140 	-2.28525 	-1.13970 	-0.64460 	-2.51530 	-1.58215 	-0.80875 	-0.18885 	-2.00875 	-1.06010 	-0.15070 	-0.05220 	-0.44440 	-0.11400 	0.18880 	0.29425 	0.11815 	0.29850 	0.28085 	0.33810 	0.37005 	0.45425 	0.35660 	-0.12655 	-0.04745 
-2.02315 	-2.45485 	-2.81950 	-2.26695 	-1.09535 	-0.67085 	-2.50940 	-1.58295 	-0.80220 	-0.22140 	-2.02660 	-1.05900 	-0.16785 	-0.05845 	-0.45650 	-0.13445 	0.15935 	0.31775 	0.10655 	0.29520 	0.25895 	0.33865 	0.36805 	0.44675 	0.34680 	-0.12485 	-0.03950 
-2.03145 	-2.49490 	-2.82295 	-2.25330 	-1.05500 	-0.69620 	-2.50975 	-1.59080 	-0.79680 	-0.26110 	-2.05050 	-1.06630 	-0.18325 	-0.06555 	-0.47460 	-0.16205 	0.12325 	0.34005 	0.09120 	0.28750 	0.23215 	0.33455 	0.36535 	0.43830 	0.33615 	-0.12185 	-0.03135 
-2.04010 	-2.54040 	-2.83080 	-2.24425 	-1.01940 	-0.71840 	-2.51570 	-1.60565 	-0.79285 	-0.30685 	-2.07980 	-1.08210 	-0.19690 	-0.07215 	-0.49850 	-0.19650 	0.08165 	0.36100 	0.07265 	0.27585 	0.20120 	0.32655 	0.36200 	0.42900 	0.32510 	-0.11755 	-0.02295 
-2.04785 	-2.58760 	-2.84200 	-2.23965 	-0.98990 	-0.73600 	-2.52640 	-1.62730 	-0.79130 	-0.35750 	-2.11400 	-1.10610 	-0.20940 	-0.07720 	-0.52765 	-0.23720 	0.03525 	0.38030 	0.05135 	0.26065 	0.16720 	0.31540 	0.35825 	0.41930 	0.31415 	-0.11185 	-0.01430 
-2.05375 	-2.63260 	-2.85545 	-2.23975 	-0.96785 	-0.74835 	-2.54110 	-1.65560 	-0.79320 	-0.41190 	-2.15210 	-1.13780 	-0.22210 	-0.08040 	-0.56145 	-0.28355 	-0.01490 	0.39680 	0.02780 	0.24265 	0.13110 	0.30190 	0.35430 	0.40945 	0.30380 	-0.10485 	-0.00535 
-2.05715 	-2.67215 	-2.87025 	-2.24470 	-0.95490 	-0.75620 	-2.55930 	-1.69030 	-0.79995 	-0.46870 	-2.19355 	-1.17630 	-0.23715 	-0.08190 	-0.59940 	-0.33460 	-0.06780 	0.40900 	0.00260 	0.22235 	0.09395 	0.28660 	0.35025 	0.39990 	0.29435 	-0.09655 	0.00370 
-2.05815 	-2.70370 	-2.88570 	-2.25505 	-0.95255 	-0.76085 	-2.58045 	-1.73115 	-0.81270 	-0.52665 	-2.23765 	-1.22060 	-0.25715 	-0.08265 	-0.64075 	-0.38930 	-0.12280 	0.41515 	-0.02390 	0.20040 	0.05645 	0.27000 	0.34620 	0.39075 	0.28595 	-0.08735 	0.01270 
-2.05720 	-2.72560 	-2.90135 	-2.27100 	-0.96185 	-0.76455 	-2.60430 	-1.77770 	-0.83235 	-0.58395 	-2.28375 	-1.26970 	-0.28480 	-0.08400 	-0.68490 	-0.44675 	-0.17935 	0.41345 	-0.05140 	0.17715 	0.01935 	0.25215 	0.34205 	0.38200 	0.27850 	-0.07750 	0.02125 
-2.05510 	-2.73730 	-2.91690 	-2.29275 	-0.98345 	-0.76940 	-2.63035 	-1.82945 	-0.85950 	-0.63885 	-2.33130 	-1.32255 	-0.32260 	-0.08735 	-0.73135 	-0.50605 	-0.23705 	0.40230 	-0.07970 	0.15300 	-0.01705 	0.23285 	0.33775 	0.37350 	0.27150 	-0.06745 	0.02895 
-2.05275 	-2.73915 	-2.93205 	-2.32020 	-1.01755 	-0.77730 	-2.65835 	-1.88595 	-0.89420 	-0.68945 	-2.37965 	-1.37835 	-0.37250 	-0.09400 	-0.77940 	-0.56640 	-0.29580 	0.38125 	-0.10850 	0.12815 	-0.05280 	0.21180 	0.33310 	0.36510 	0.26455 	-0.05775 	0.03515 
-2.05110 	-2.73230 	-2.94695 	-2.35310 	-1.06380 	-0.78995 	-2.68805 	-1.94650 	-0.93630 	-0.73435 	-2.42830 	-1.43650 	-0.43535 	-0.10495 	-0.82850 	-0.62700 	-0.35555 	0.35035 	-0.13775 	0.10275 	-0.08785 	0.18870 	0.32805 	0.35625 	0.25675 	-0.04890 	0.03905 
-2.05080 	-2.71905 	-2.96175 	-2.39120 	-1.12160 	-0.80825 	-2.71910 	-2.01070 	-0.98525 	-0.77250 	-2.47680 	-1.49665 	-0.51105 	-0.12075 	-0.87815 	-0.68740 	-0.41630 	0.31075 	-0.16720 	0.07700 	-0.12260 	0.16335 	0.32245 	0.34660 	0.24755 	-0.04145 	0.03990 
-2.05255 	-2.70200 	-2.97695 	-2.43400 	-1.19015 	-0.83265 	-2.75155 	-2.07815 	-1.04065 	-0.80330 	-2.52480 	-1.55860 	-0.59855 	-0.14170 	-0.92805 	-0.74710 	-0.47815 	0.26410 	-0.19685 	0.05075 	-0.15740 	0.13555 	0.31610 	0.33560 	0.23605 	-0.03610 	0.03690 
-2.05670 	-2.68430 	-2.99305 	-2.48125 	-1.26860 	-0.86295 	-2.78535 	-2.14845 	-1.10235 	-0.82690 	-2.57200 	-1.62220 	-0.69610 	-0.16800 	-0.97800 	-0.80580 	-0.54130 	0.21195 	-0.22675 	0.02395 	-0.19285 	0.10505 	0.30890 	0.32270 	0.22175 	-0.03330 	0.02930 
-2.06350 	-2.66890 	-3.01065 	-2.53235 	-1.35550 	-0.89865 	-2.82040 	-2.22135 	-1.16985 	-0.84365 	-2.61805 	-1.68725 	-0.80145 	-0.19945 	-1.02755 	-0.86325 	-0.60585 	0.15575 	-0.25675 	-0.00350 	-0.22940 	0.07185 	0.30060 	0.30750 	0.20420 	-0.03355 	0.01640 
-2.07265 	-2.65850 	-3.02970 	-2.58645 	-1.44905 	-0.93870 	-2.85640 	-2.29600 	-1.24290 	-0.85455 	-2.66260 	-1.75315 	-0.91165 	-0.23585 	-1.07630 	-0.91895 	-0.67160 	0.09620 	-0.28675 	-0.03160 	-0.26730 	0.03615 	0.29135 	0.28975 	0.18320 	-0.03695 	-0.00180 
-2.08365 	-2.65480 	-3.05010 	-2.64200 	-1.54660 	-0.98175 	-2.89260 	-2.37115 	-1.32020 	-0.86090 	-2.70475 	-1.81875 	-1.02360 	-0.27655 	-1.12330 	-0.97210 	-0.73795 	0.03380 	-0.31620 	-0.05990 	-0.30640 	-0.00185 	0.28160 	0.26965 	0.15885 	-0.04330 	-0.02500 
-2.09570 	-2.65870 	-3.07095 	-2.69720 	-1.64470 	-1.02630 	-2.92795 	-2.44480 	-1.39960 	-0.86415 	-2.74350 	-1.88230 	-1.13380 	-0.32105 	-1.16760 	-1.02145 	-0.80385 	-0.03125 	-0.34420 	-0.08780 	-0.34610 	-0.04165 	0.27200 	0.24790 	0.13160 	-0.05215 	-0.05255 
-2.10785 	-2.66980 	-3.09115 	-2.74975 	-1.73955 	-1.07060 	-2.96095 	-2.51450 	-1.47855 	-0.86590 	-2.77760 	-1.94185 	-1.23905 	-0.36900 	-1.20770 	-1.06575 	-0.86785 	-0.09885 	-0.36990 	-0.11435 	-0.38535 	-0.08245 	0.26360 	0.22540 	0.10225 	-0.06245 	-0.08305 
-2.11910 	-2.68685 	-3.10950 	-2.79720 	-1.82775 	-1.11295 	-2.99015 	-2.57770 	-1.55395 	-0.86765 	-2.80570 	-1.99505 	-1.33630 	-0.42005 	-1.24240 	-1.10355 	-0.92815 	-0.16835 	-0.39205 	-0.13845 	-0.42285 	-0.12330 	0.25735 	0.20335 	0.07170 	-0.07330 	-0.11505 
-2.12825 	-2.70785 	-3.12450 	-2.83735 	-1.90605 	-1.15165 	-3.01430 	-2.63195 	-1.62325 	-0.87080 	-2.82695 	-2.04010 	-1.42310 	-0.47395 	-1.27055 	-1.13365 	-0.98315 	-0.23875 	-0.40985 	-0.15915 	-0.45735 	-0.16310 	0.25435 	0.18320 	0.04100 	-0.08315 	-0.14650 
-2.13405 	-2.72975 	-3.13470 	-2.86825 	-1.97220 	-1.18510 	-3.03220 	-2.67535 	-1.68420 	-0.87570 	-2.84055 	-2.07535 	-1.49765 	-0.52990 	-1.29125 	-1.15525 	-1.03130 	-0.30840 	-0.42235 	-0.17535 	-0.48745 	-0.20080 	0.25565 	0.16640 	0.01150 	-0.09035 	-0.17515 
-2.13520 	-2.74915 	-3.13880 	-2.88830 	-2.02465 	-1.21160 	-3.04275 	-2.70620 	-1.73525 	-0.88220 	-2.84610 	-2.09985 	-1.55865 	-0.58655 	-1.30385 	-1.16770 	-1.07125 	-0.37500 	-0.42890 	-0.18625 	-0.51205 	-0.23545 	0.26215 	0.15450 	-0.01545 	-0.09305 	-0.19860 
-2.13030 	-2.76230 	-3.13545 	-2.89645 	-2.06245 	-1.22975 	-3.04545 	-2.72385 	-1.77520 	-0.88930 	-2.84355 	-2.11325 	-1.60530 	-0.64190 	-1.30790 	-1.17095 	-1.10205 	-0.43600 	-0.42905 	-0.19115 	-0.53000 	-0.26615 	0.27470 	0.14890 	-0.03865 	-0.08960 	-0.21460 
-2.11810 	-2.76555 	-3.12370 	-2.89210 	-2.08525 	-1.23845 	-3.03975 	-2.72770 	-1.80325 	-0.89570 	-2.83300 	-2.11555 	-1.63725 	-0.69380 	-1.30340 	-1.16530 	-1.12330 	-0.48910 	-0.42265 	-0.18990 	-0.54060 	-0.29220 	0.29370 	0.15065 	-0.05685 	-0.07870 	-0.22130 
-2.09745 	-2.75560 	-3.10265 	-2.87540 	-2.09355 	-1.23720 	-3.02550 	-2.71815 	-1.81925 	-0.90015 	-2.81485 	-2.10730 	-1.65420 	-0.74015 	-1.29050 	-1.15120 	-1.13480 	-0.53235 	-0.40985 	-0.18230 	-0.54350 	-0.31325 	0.31930 	0.16025 	-0.06945 	-0.05955 	-0.21760 
-2.06750 	-2.73010 	-3.07220 	-2.84690 	-2.08835 	-1.22590 	-3.00295 	-2.69580 	-1.82325 	-0.90175 	-2.78985 	-2.08965 	-1.65620 	-0.77930 	-1.27000 	-1.12970 	-1.13700 	-0.56480 	-0.39115 	-0.16885 	-0.53870 	-0.32910 	0.35125 	0.17790 	-0.07600 	-0.03205 	-0.20305 
-2.02790 	-2.68760 	-3.03225 	-2.80765 	-2.07100 	-1.20515 	-2.97265 	-2.66190 	-1.81565 	-0.90045 	-2.75880 	-2.06375 	-1.64325 	-0.81075 	-1.24260 	-1.10195 	-1.13065 	-0.58645 	-0.36745 	-0.15025 	-0.52660 	-0.34000 	0.38875 	0.20330 	-0.07650 	0.00340 	-0.17800 
-1.97840 	-2.62795 	-2.98350 	-2.75905 	-2.04290 	-1.17605 	-2.93525 	-2.61775 	-1.79690 	-0.89690 	-2.72280 	-2.03100 	-1.61580 	-0.83465 	-1.20965 	-1.06935 	-1.11655 	-0.59810 	-0.33990 	-0.12760 	-0.50820 	-0.34650 	0.43090 	0.23570 	-0.07115 	0.04595 	-0.14325 
-1.91945 	-2.55205 	-2.92670 	-2.70250 	-2.00535 	-1.14015 	-2.89175 	-2.56485 	-1.76705 	-0.89255 	-2.68315 	-1.99300 	-1.57430 	-0.85180 	-1.17245 	-1.03335 	-1.09600 	-0.60160 	-0.30970 	-0.10200 	-0.48435 	-0.34920 	0.47655 	0.27405 	-0.06030 	0.09445 	-0.09970 
-1.85200 	-2.46210 	-2.86345 	-2.63970 	-1.95940 	-1.09950 	-2.84335 	-2.50460 	-1.72655 	-0.88940 	-2.64115 	-1.95110 	-1.51960 	-0.86385 	-1.13255 	-0.99550 	-1.07015 	-0.59905 	-0.27830 	-0.07485 	-0.45625 	-0.34905 	0.52450 	0.31740 	-0.04450 	0.14790 	-0.04835 
-1.77710 	-2.36125 	-2.79525 	-2.57245 	-1.90640 	-1.05625 	-2.79130 	-2.43890 	-1.67590 	-0.88930 	-2.59820 	-1.90690 	-1.45350 	-0.87225 	-1.09140 	-0.95720 	-1.04065 	-0.59290 	-0.24690 	-0.04740 	-0.42505 	-0.34705 	0.57365 	0.36455 	-0.02405 	0.20500 	0.00980 
-1.69625 	-2.25365 	-2.72435 	-2.50275 	-1.84800 	-1.01255 	-2.73745 	-2.36965 	-1.61680 	-0.89415 	-2.55575 	-1.86195 	-1.37830 	-0.87885 	-1.05075 	-0.91985 	-1.00905 	-0.58565 	-0.21680 	-0.02090 	-0.39175 	-0.34405 	0.62295 	0.41450 	0.00060 	0.26475 	0.07370 
-1.61125 	-2.14365 	-2.65300 	-2.43290 	-1.78605 	-0.97000 	-2.68355 	-2.29940 	-1.55120 	-0.90455 	-2.51530 	-1.81800 	-1.29715 	-0.88470 	-1.01200 	-0.88485 	-0.97715 	-0.57940 	-0.18910 	0.00375 	-0.35710 	-0.34080 	0.67150 	0.46630 	0.02890 	0.32610 	0.14225 
-1.52385 	-2.03610 	-2.58345 	-2.36505 	-1.72275 	-0.92955 	-2.63150 	-2.23060 	-1.48160 	-0.92030 	-2.47820 	-1.77680 	-1.21375 	-0.89035 	-0.97650 	-0.85330 	-0.94665 	-0.57560 	-0.16455 	0.02575 	-0.32160 	-0.33775 	0.71870 	0.51915 	0.06060 	0.38810 	0.21415 
-1.43560 	-1.93500 	-2.51785 	-2.30125 	-1.66010 	-0.89145 	-2.58310 	-2.16585 	-1.41065 	-0.93975 	-2.44545 	-1.74005 	-1.13145 	-0.89535 	-0.94525 	-0.82600 	-0.91880 	-0.57475 	-0.14370 	0.04455 	-0.28575 	-0.33470 	0.76395 	0.57235 	0.09520 	0.44985 	0.28790 
-1.34825 	-1.84415 	-2.45810 	-2.24325 	-1.60005 	-0.85520 	-2.53975 	-2.10745 	-1.34090 	-0.96065 	-2.41785 	-1.70905 	-1.05345 	-0.89870 	-0.91900 	-0.80370 	-0.89455 	-0.57685 	-0.12695 	0.05980 	-0.24980 	-0.33145 	0.80700 	0.62540 	0.13225 	0.51055 	0.36200 
-1.26295 	-1.76625 	-2.40580 	-2.19230 	-1.54435 	-0.82020 	-2.50275 	-2.05700 	-1.27475 	-0.98035 	-2.39590 	-1.68490 	-0.98240 	-0.89895 	-0.89830 	-0.78685 	-0.87440 	-0.58145 	-0.11465 	0.07130 	-0.21410 	-0.32750 	0.84750 	0.67770 	0.17135 	0.56940 	0.43480 
-1.18110 	-1.70300 	-2.36205 	-2.14970 	-1.49465 	-0.78575 	-2.47310 	-2.01605 	-1.21460 	-0.99640 	-2.38010 	-1.66820 	-0.92035 	-0.89455 	-0.88355 	-0.77595 	-0.85865 	-0.58760 	-0.10700 	0.07860 	-0.17925 	-0.32255 	0.88520 	0.72855 	0.21180 	0.62555 	0.50445 
-1.10350 	-1.65510 	-2.32790 	-2.11605 	-1.45220 	-0.75140 	-2.45155 	-1.98530 	-1.16270 	-1.00685 	-2.37065 	-1.65955 	-0.86890 	-0.88400 	-0.87520 	-0.77120 	-0.84735 	-0.59420 	-0.10430 	0.08145 	-0.14620 	-0.31625 	0.91975 	0.77720 	0.25275 	0.67820 	0.56925 
-1.03120 	-1.62230 	-2.30380 	-2.09195 	-1.41800 	-0.71730 	-2.43885 	-1.96540 	-1.12095 	-1.01045 	-2.36800 	-1.65935 	-0.82940 	-0.86585 	-0.87360 	-0.77295 	-0.84060 	-0.59975 	-0.10690 	0.07935 	-0.11585 	-0.30860 	0.95075 	0.82275 	0.29340 	0.72660 	0.62785 
-0.96485 	-1.60335 	-2.29000 	-2.07755 	-1.39250 	-0.68395 	-2.43545 	-1.95660 	-1.09080 	-1.00625 	-2.37255 	-1.66795 	-0.80285 	-0.83890 	-0.87905 	-0.78155 	-0.83870 	-0.60230 	-0.11535 	0.07180 	-0.08955 	-0.29960 	0.97775 	0.86430 	0.33280 	0.77000 	0.67895 
-0.90490 	-1.59625 	-2.28655 	-2.07280 	-1.37570 	-0.65165 	-2.44195 	-1.95900 	-1.07295 	-0.99360 	-2.38470 	-1.68565 	-0.78985 	-0.80220 	-0.89200 	-0.79725 	-0.84190 	-0.59970 	-0.13000 	0.05815 	-0.06865 	-0.28940 	1.00015 	0.90070 	0.36990 	0.80765 	0.72170 
-0.85160 	-1.59835 	-2.29280 	-2.07715 	-1.36710 	-0.62105 	-2.45830 	-1.97210 	-1.06745 	-0.97240 	-2.40460 	-1.71255 	-0.79025 	-0.75555 	-0.91255 	-0.82040 	-0.85050 	-0.58970 	-0.15120 	0.03810 	-0.05435 	-0.27820 	1.01755 	0.93120 	0.40370 	0.83895 	0.75545 
-0.80480 	-1.60665 	-2.30805 	-2.09000 	-1.36615 	-0.59225 	-2.48440 	-1.99540 	-1.07365 	-0.94285 	-2.43215 	-1.74855 	-0.80345 	-0.69940 	-0.94065 	-0.85100 	-0.86450 	-0.57080 	-0.17900 	0.01135 	-0.04755 	-0.26645 	1.02950 	0.95505 	0.43335 	0.86345 	0.77980 
-0.76420 	-1.61810 	-2.33125 	-2.11055 	-1.37195 	-0.56530 	-2.51970 	-2.02795 	-1.09030 	-0.90605 	-2.46700 	-1.79290 	-0.82815 	-0.63545 	-0.97595 	-0.88885 	-0.88395 	-0.54210 	-0.21325 	-0.02195 	-0.04865 	-0.25435 	1.03595 	0.97185 	0.45835 	0.88090 	0.79490 
-0.72950 	-1.62985 	-2.36135 	-2.13800 	-1.38390 	-0.54015 	-2.56340 	-2.06860 	-1.11595 	-0.86395 	-2.50840 	-1.84460 	-0.86240 	-0.56645 	-1.01765 	-0.93340 	-0.90850 	-0.50370 	-0.25325 	-0.06125 	-0.05745 	-0.24250 	1.03695 	0.98145 	0.47845 	0.89160 	0.80115 
-0.69995 	-1.63975 	-2.39710 	-2.17135 	-1.40110 	-0.51680 	-2.61455 	-2.11610 	-1.14870 	-0.81890 	-2.55535 	-1.90205 	-0.90435 	-0.49595 	-1.06470 	-0.98365 	-0.93755 	-0.45645 	-0.29800 	-0.10570 	-0.07315 	-0.23125 	1.03300 	0.98440 	0.49380 	0.89610 	0.79980 
-0.67515 	-1.64620 	-2.43735 	-2.20950 	-1.42255 	-0.49510 	-2.67165 	-2.16870 	-1.18655 	-0.77405 	-2.60645 	-1.96325 	-0.95190 	-0.42760 	-1.11580 	-1.03835 	-0.97065 	-0.40185 	-0.34630 	-0.15410 	-0.09455 	-0.22080 	1.02490 	0.98150 	0.50510 	0.89545 	0.79235 
-0.65460 	-1.64865 	-2.48095 	-2.25135 	-1.44675 	-0.47545 	-2.73350 	-2.22465 	-1.22735 	-0.73235 	-2.66010 	-2.02595 	-1.00315 	-0.36470 	-1.16945 	-1.09600 	-1.00680 	-0.34160 	-0.39655 	-0.20495 	-0.12035 	-0.21115 	1.01355 	0.97365 	0.51305 	0.89095 	0.78080 
-0.63830 	-1.64750 	-2.52720 	-2.29595 	-1.47255 	-0.45875 	-2.79875 	-2.28235 	-1.26955 	-0.69710 	-2.71520 	-2.08830 	-1.05715 	-0.30995 	-1.22440 	-1.15540 	-1.04535 	-0.27735 	-0.44755 	-0.25700 	-0.14930 	-0.20235 	0.99985 	0.96200 	0.51845 	0.88385 	0.76695 
-0.62655 	-1.64420 	-2.57590 	-2.34280 	-1.49925 	-0.44645 	-2.86660 	-2.34065 	-1.31235 	-0.67120 	-2.77070 	-2.14900 	-1.11325 	-0.26490 	-1.27975 	-1.21545 	-1.08570 	-0.21055 	-0.49845 	-0.30940 	-0.18070 	-0.19420 	0.98465 	0.94750 	0.52205 	0.87540 	0.75265 
-0.62000 	-1.64130 	-2.62735 	-2.39190 	-1.52680 	-0.44035 	-2.93665 	-2.39935 	-1.35555 	-0.65725 	-2.82630 	-2.20745 	-1.17175 	-0.23075 	-1.33505 	-1.27555 	-1.12730 	-0.14255 	-0.54865 	-0.36160 	-0.21400 	-0.18650 	0.96825 	0.93080 	0.52440 	0.86630 	0.73895 
-0.61980 	-1.64190 	-2.68220 	-2.44360 	-1.55550 	-0.44235 	-3.00895 	-2.45865 	-1.39970 	-0.65685 	-2.88205 	-2.26390 	-1.23335 	-0.20775 	-1.39020 	-1.33550 	-1.16970 	-0.07420 	-0.59810 	-0.41345 	-0.24900 	-0.17930 	0.95105 	0.91245 	0.52580 	0.85730 	0.72680 
-0.62700 	-1.64925 	-2.74155 	-2.49850 	-1.58615 	-0.45410 	-3.08380 	-2.51940 	-1.44550 	-0.67055 	-2.93830 	-2.31915 	-1.29895 	-0.19615 	-1.44535 	-1.39510 	-1.21280 	-0.00670 	-0.64675 	-0.46485 	-0.28565 	-0.17275 	0.93330 	0.89290 	0.52645 	0.84870 	0.71680 
-0.64260 	-1.66650 	-2.80625 	-2.55720 	-1.61940 	-0.47665 	-3.16155 	-2.58235 	-1.49380 	-0.69750 	-2.99565 	-2.37415 	-1.36920 	-0.19615 	-1.50080 	-1.45435 	-1.25640 	0.05860 	-0.69495 	-0.51595 	-0.32380 	-0.16720 	0.91515 	0.87235 	0.52645 	0.84080 	0.70920 
-0.66715 	-1.69610 	-2.87705 	-2.62000 	-1.65570 	-0.51050 	-3.24265 	-2.64835 	-1.54490 	-0.73595 	-3.05460 	-2.42975 	-1.44395 	-0.20785 	-1.55670 	-1.51335 	-1.30055 	0.11995 	-0.74260 	-0.56675 	-0.36340 	-0.16320 	0.89665 	0.85115 	0.52575 	0.83380 	0.70395 
-0.70070 	-1.73975 	-2.95440 	-2.68705 	-1.69545 	-0.55530 	-3.32720 	-2.71770 	-1.59895 	-0.78365 	-3.11535 	-2.48675 	-1.52275 	-0.23130 	-1.61325 	-1.57190 	-1.34550 	0.17545 	-0.78990 	-0.61725 	-0.40425 	-0.16125 	0.87800 	0.82945 	0.52420 	0.82755 	0.70100 
